Delta_TP9,Delta_AF7,Delta_AF8,Delta_TP10,Theta_TP9,Theta_AF7,Theta_AF8,Theta_TP10,Alpha_TP9,Alpha_AF7,Alpha_AF8,Alpha_TP10,Beta_TP9,Beta_AF7,Beta_AF8,Beta_TP10,Gamma_TP9,Gamma_AF7,Gamma_AF8,Gamma_TP10,RAW_TP9,RAW_AF7,RAW_AF8,RAW_TP10,AUX_RIGHT,Accelerometer_X,Accelerometer_Y,Accelerometer_Z,Gyro_X,Gyro_Y,Gyro_Z,HeadBandOn,HSI_TP9,HSI_AF7,HSI_AF8,HSI_TP10,Battery,Elements,TimeStamp
1.9904033,0.44359586,0.13256139,0.0,0.9265753,0.18693984,0.09675444,0.0,1.1551677,0.19964544,0.4771448,0.0,0.90206337,0.28100035,0.20098406,0.0,0.36944678,0.14147073,0.13361275,0.0,810.696,852.1978,863.47986,618.9011,860.2564,0.2440185546875,0.16571044921875,0.97235107421875,0.58319091796875,3.760833740234375,5.38330078125,1.0,1.0,1.0,1.0,2.0,93.31,0.0,2023-10-31 20:11:02.583
1.1537383,0.48963532,0.5596682,0.0,0.38741666,0.00040078134,0.048122283,0.0,0.61336815,0.88183224,0.20436227,0.0,0.6781724,0.35313624,0.2505087,0.0,0.24327303,0.017323438,0.013287184,0.0,1080.2565,864.68866,842.52747,64.468864,1232.1611,0.1895751953125,0.135009765625,0.94805908203125,2.093505859375,3.349609375,13.876953125,1.0,1.0,1.0,1.0,2.0,93.31,0.0,2023-10-31 20:11:03.584
1.1537383,1.011086,0.76326925,0.0,0.38741666,0.14408621,0.26097873,0.0,0.61336815,0.9006605,0.20927069,0.0,0.6781724,0.44431603,0.26544964,0.0,0.24327303,0.029290786,0.00061392214,0.0,1008.1319,869.5238,823.5897,1207.9854,991.6117,0.280517578125,0.148681640625,0.95361328125,1.981353759765625,3.1402587890625,5.704803466796875,1.0,1.0,1.0,1.0,4.0,93.31,0.0,2023-10-31 20:11:04.591
1.1537383,0.8209089,0.42430907,0.0,0.38741666,0.20184803,0.2755528,0.0,0.61336815,0.14446017,0.20639929,0.0,0.6781724,0.5033937,0.28239644,0.0,0.24327303,0.025435383,0.2049374,0.0,999.67035,863.8828,847.76556,1277.2894,1023.8461,0.26702880859375,0.1639404296875,0.9482421875,1.77947998046875,0.814971923828125,1.42059326171875,1.0,2.0,1.0,1.0,2.0,93.31,0.0,2023-10-31 20:11:05.599
1.1537383,0.47488546,0.01744626,0.0,0.38741666,0.12860408,0.0043316577,0.0,0.61336815,0.016450444,0.17340499,0.0,0.6781724,0.42563668,0.09256358,0.0,0.24327303,0.04074862,0.1303114,0.0,1022.6374,869.12085,836.4835,1435.238,990.0,0.27349853515625,0.17401123046875,0.94793701171875,0.859832763671875,3.18511962890625,2.6617431640625,1.0,2.0,1.0,1.0,2.0,93.31,0.0,2023-10-31 20:11:06.608
1.1537383,0.5744838,0.07429641,0.0,0.38741666,0.33139062,0.061375353,0.0,0.61336815,0.04694886,0.43656197,0.0,0.6781724,0.23651442,0.12094351,0.0,0.24327303,0.1563171,0.033971407,0.0,935.2015,847.3626,857.4359,42.71062,791.3553,0.06396484375,0.17010498046875,0.97344970703125,5.585174560546875,12.32177734375,4.56085205078125,1.0,2.0,1.0,1.0,2.0,93.31,0.0,2023-10-31 20:11:07.617
1.1537383,1.2248517,0.96335036,0.0,0.38741666,0.6550886,0.40925312,0.0,0.61336815,0.585758,0.48684943,0.0,0.6781724,0.34966978,0.27445686,0.0,0.24327303,0.07909137,0.0328897,0.0,962.6007,873.95605,843.73627,1060.9158,807.47253,0.26947021484375,0.18310546875,0.99627685546875,4.83001708984375,4.66552734375,6.033782958984375,1.0,2.0,1.0,1.0,4.0,93.31,0.0,2023-10-31 20:11:08.624
1.1537383,1.1567513,0.86356777,0.0,0.38741666,0.48115122,0.24489509,0.0,0.61336815,0.5333383,0.25094384,0.0,0.6781724,0.47691292,0.162315,0.0,0.24327303,0.22082518,0.145532,0.0,965.0183,874.7619,828.4249,1056.8865,1000.4762,0.028564453125,0.11492919921875,0.9666748046875,5.48797607421875,10.041351318359377,12.418975830078123,1.0,2.0,1.0,1.0,4.0,93.31,0.0,2023-10-31 20:11:09.634
1.1537383,0.6317464,0.33250937,0.0,0.38741666,0.1328617,0.11362549,0.0,0.61336815,0.10006283,0.5107126,0.0,0.6781724,0.41066277,0.5256171,0.0,0.24327303,0.1672477,0.20875254,0.0,975.4945,871.13556,831.6484,1258.7546,855.0183,0.00372314453125,0.0694580078125,0.99102783203125,0.142059326171875,0.800018310546875,3.46923828125,1.0,2.0,1.0,1.0,2.0,93.31,0.0,2023-10-31 20:11:10.648
1.1537383,0.44853193,0.6842675,0.0,0.38741666,0.20054081,0.251912,0.0,0.61336815,0.0016651481,0.53439134,0.0,0.6781724,0.2291348,0.49942335,0.0,0.24327303,0.0072663464,0.22031371,0.0,792.1612,857.4359,861.06226,738.97437,765.56775,0.02398681640625,0.10284423828125,0.99359130859375,0.4486083984375,1.278533935546875,1.15142822265625,1.0,2.0,1.0,1.0,2.0,93.27,0.0,2023-10-31 20:11:11.649
1.1537383,0.03351057,0.4502939,0.0,0.38741666,0.07951368,0.05088972,0.0,0.61336815,0.3973912,0.29148942,0.0,0.6781724,0.25536722,0.31821394,0.0,0.24327303,0.022020364,0.2090286,0.0,704.3223,847.76556,872.3443,263.9194,657.98535,0.00018310546875,0.09930419921875,0.98956298828125,1.099090576171875,3.36456298828125,2.325286865234375,1.0,2.0,1.0,1.0,2.0,93.27,0.0,2023-10-31 20:11:12.657
1.1537383,0.041242283,1.1436224,0.0,0.38741666,0.35023057,0.7806184,0.0,0.61336815,0.40388024,0.5849797,0.0,0.6781724,0.27282423,0.23020115,0.0,0.24327303,0.104447275,0.20211154,0.0,712.7839,877.98535,805.05493,1484.7986,794.9817,0.066162109375,0.08935546875,0.97369384765625,2.58697509765625,18.721923828125,34.6624755859375,1.0,2.0,1.0,1.0,2.0,93.27,0.0,2023-10-31 20:11:13.667
1.1537383,0.5370034,1.0138948,0.0,0.38741666,0.1849462,0.513288,0.0,0.61336815,0.04416094,0.31066343,0.0,0.6781724,0.33941185,0.1906441,0.0,0.24327303,0.040397637,0.20841247,0.0,805.05493,815.9341,825.2015,547.5824,843.3333,0.0484619140625,0.0618896484375,0.9901123046875,2.310333251953125,4.897308349609375,2.04864501953125,1.0,2.0,1.0,1.0,2.0,93.27,0.0,2023-10-31 20:11:14.674
1.1537383,0.8074868,0.6371196,0.0,0.38741666,0.30794984,0.044779465,0.0,0.61336815,0.18122168,0.086001344,0.0,0.6781724,0.44639662,0.087235644,0.0,0.24327303,0.05306176,0.046070814,0.0,747.03296,814.7253,849.7802,284.46887,640.65936,0.1641845703125,0.14581298828125,1.01416015625,0.9869384765625,4.5458984375,15.611572265625,1.0,2.0,1.0,1.0,4.0,93.27,0.0,2023-10-31 20:11:15.682
1.1537383,0.8074868,0.6371196,0.0,0.38741666,0.30794984,0.044779465,0.0,0.61336815,0.18122168,0.086001344,0.0,0.6781724,0.44639662,0.087235644,0.0,0.24327303,0.05306176,0.046070814,0.0,856.2271,863.47986,867.1062,717.2161,740.989,0.11492919921875,0.1307373046875,0.97412109375,3.1103515625,16.07513427734375,42.84957885742188,1.0,2.0,1.0,1.0,4.0,93.27,0.0,2023-10-31 20:11:16.689
1.1537383,1.0580317,0.6371196,0.0,0.38741666,0.3575232,0.044779465,0.0,0.61336815,0.13148145,0.086001344,0.0,0.6781724,0.56586164,0.087235644,0.0,0.24327303,0.112933256,0.046070814,0.0,763.5531,871.9414,905.78754,0.0,677.326,0.1160888671875,0.23822021484375,0.9635009765625,6.093597412109375,16.14990234375,5.944061279296875,1.0,2.0,1.0,1.0,4.0,93.27,0.0,2023-10-31 20:11:17.691
1.1537383,1.0580317,0.6371196,0.0,0.38741666,0.3575232,0.044779465,0.0,0.61336815,0.13148145,0.086001344,0.0,0.6781724,0.56586164,0.087235644,0.0,0.24327303,0.112933256,0.046070814,0.0,647.9121,861.4652,992.8205,64.06593,680.54944,0.1329345703125,0.29876708984375,0.93890380859375,0.22430419921875,0.2691650390625,12.919921875,1.0,2.0,1.0,1.0,4.0,93.27,0.0,2023-10-31 20:11:18.697
1.1537383,1.0580317,0.6371196,0.0,0.38741666,0.3575232,0.044779465,0.0,0.61336815,0.13148145,0.086001344,0.0,0.6781724,0.56586164,0.087235644,0.0,0.24327303,0.112933256,0.046070814,0.0,584.2491,818.7546,893.69965,92.271065,1030.6959,0.39312744140625,0.083740234375,0.89849853515625,1.21124267578125,9.13665771484375,24.12017822265625,1.0,2.0,1.0,1.0,4.0,93.27,0.0,2023-10-31 20:11:19.707
1.1537383,1.0580317,0.6371196,0.0,0.38741666,0.3575232,0.044779465,0.0,0.61336815,0.13148145,0.086001344,0.0,0.6781724,0.56586164,0.087235644,0.0,0.24327303,0.112933256,0.046070814,0.0,657.98535,842.9304,847.76556,922.71063,1193.4799,0.41815185546875,0.17474365234375,0.87548828125,3.940277099609375,8.23944091796875,16.4190673828125,1.0,2.0,1.0,1.0,4.0,93.27,0.0,2023-10-31 20:11:20.715
1.1537383,0.88477933,0.7425053,0.0,0.38741666,0.59302324,0.5494648,0.0,0.61336815,0.37656876,0.21974422,0.0,0.6781724,0.66773665,0.6662417,0.0,0.24327303,0.22093974,0.41392416,0.0,707.9487,835.2747,827.619,137.39926,745.42126,0.37103271484375,0.1240234375,0.9129638671875,0.695343017578125,0.142059326171875,6.916046142578125,1.0,2.0,1.0,1.0,4.0,93.23,0.0,2023-10-31 20:11:21.724
1.1537383,0.95458025,0.72443867,0.0,0.38741666,0.5704656,0.52676255,0.0,0.61336815,0.61458975,0.526566,0.0,0.6781724,0.64748496,0.3263675,0.0,0.24327303,0.32212985,0.23774645,0.0,1100.0,791.75824,817.5458,0.0,1492.4542,0.27655029296875,0.25555419921875,0.9454345703125,30.153961181640625,2.3028564453125,158.11203002929688,1.0,2.0,1.0,1.0,2.0,93.23,0.0,2023-10-31 20:11:22.732
1.1537383,0.8433071,0.33138472,0.0,0.38741666,0.097934425,0.20413937,0.0,0.61336815,0.63254577,0.5199386,0.0,0.6781724,0.41224456,0.36731812,0.0,0.24327303,0.17381704,0.20999329,0.0,664.43225,845.7509,856.63007,459.7436,40.29304,0.15008544921875,0.04962158203125,0.9486083984375,11.686248779296877,1.547698974609375,5.884246826171875,1.0,2.0,1.0,1.0,4.0,93.23,0.0,2023-10-31 20:11:23.738
1.1537383,0.81834936,0.33138472,0.0,0.38741666,0.37935942,0.20413937,0.0,0.61336815,0.36272168,0.5199386,0.0,0.6781724,0.29994875,0.36731812,0.0,0.24327303,0.22148867,0.20999329,0.0,828.4249,854.21246,840.10986,1650.0,1079.8535,0.35504150390625,0.10797119140625,1.00787353515625,12.299346923828123,29.869842529296875,25.2117919921875,1.0,2.0,1.0,1.0,4.0,93.23,0.0,2023-10-31 20:11:24.746
1.1537383,0.6874797,0.33138472,0.0,0.38741666,0.27116728,0.20413937,0.0,0.61336815,0.15599436,0.5199386,0.0,0.6781724,0.27773958,0.36731812,0.0,0.24327303,0.35299978,0.20999329,0.0,560.4762,862.27106,849.3773,1608.0952,1419.9268,0.00701904296875,0.1630859375,0.992431640625,5.435638427734375,3.66363525390625,21.04721069335937,1.0,2.0,1.0,1.0,4.0,93.23,0.0,2023-10-31 20:11:25.756
1.1537383,1.4040624,1.2535352,0.0,0.38741666,0.96264565,0.8567926,0.0,0.61336815,0.87422574,0.45877957,0.0,0.6781724,0.42611164,0.5643261,0.0,0.24327303,0.13884078,0.4789242,0.0,707.9487,843.3333,878.7912,1650.0,1650.0,0.149658203125,0.0416259765625,0.86444091796875,14.019012451171877,1.51031494140625,7.91046142578125,1.0,2.0,1.0,1.0,4.0,93.23,0.0,2023-10-31 20:11:26.765
1.1537383,1.3331499,1.0416849,0.0,0.38741666,1.0943227,0.8423634,0.0,0.61336815,0.8545855,0.28092742,0.0,0.6781724,0.44238767,0.6107052,0.0,0.24327303,0.15754442,0.4618983,0.0,1112.0879,811.0989,901.3553,1641.1355,24.578754,0.11712646484375,0.1475830078125,1.0791015625,17.488250732421875,22.8790283203125,24.4940185546875,1.0,4.0,1.0,1.0,4.0,93.23,0.0,2023-10-31 20:11:27.773
1.1537383,1.3331499,1.0416849,0.0,0.38741666,1.0943227,0.8423634,0.0,0.61336815,0.8545855,0.28092742,0.0,0.6781724,0.44238767,0.6107052,0.0,0.24327303,0.15754442,0.4618983,0.0,832.8571,820.7692,884.43225,1425.1648,705.12823,0.58392333984375,0.3770751953125,0.75567626953125,3.22998046875,27.701568603515625,8.830108642578125,1.0,4.0,1.0,1.0,4.0,93.23,0.0,2023-10-31 20:11:28.780
1.1537383,1.3331499,1.0416849,0.0,0.38741666,1.0943227,0.8423634,0.0,0.61336815,0.8545855,0.28092742,0.0,0.6781724,0.44238767,0.6107052,0.0,0.24327303,0.15754442,0.4618983,0.0,1650.0,867.50916,834.87177,509.30402,1228.1318,0.046875,0.1468505859375,0.90045166015625,19.57427978515625,1.906585693359375,36.785888671875,1.0,4.0,1.0,1.0,4.0,93.23,0.0,2023-10-31 20:11:29.790
1.1537383,1.3331499,1.3424501,0.0,0.38741666,1.0943227,0.5495641,0.0,0.61336815,0.8545855,0.43469474,0.0,0.6781724,0.44238767,0.17714354,0.0,0.24327303,0.15754442,0.27414814,0.0,673.69965,862.27106,835.6777,623.73627,340.07327,0.1285400390625,0.05316162109375,0.9942626953125,2.58697509765625,1.921539306640625,13.271331787109377,1.0,4.0,1.0,1.0,4.0,93.23,0.0,2023-10-31 20:11:30.796
1.1537383,0.4332758,1.0215403,0.0,0.38741666,0.23896828,0.34486014,0.0,0.61336815,0.16954514,0.4816906,0.0,0.6781724,0.16565251,0.39593863,0.0,0.24327303,0.47932264,0.09252126,0.0,926.337,857.03296,845.7509,1232.5641,964.61536,0.023681640625,0.00726318359375,0.988037109375,3.9178466796875,4.987030029296875,0.31402587890625,1.0,2.0,1.0,1.0,2.0,93.2,0.0,2023-10-31 20:11:31.806
1.1537383,0.3043279,0.28833878,0.0,0.38741666,0.244429,0.06910918,0.0,0.61336815,0.11450329,0.3983225,0.0,0.6781724,0.30453342,0.48999974,0.0,0.24327303,0.1644074,0.38770935,0.0,974.68866,857.4359,880.80585,795.78754,976.7033,0.00750732421875,0.00213623046875,0.99798583984375,2.190704345703125,2.332763671875,3.521575927734375,1.0,2.0,1.0,1.0,4.0,93.2,0.0,2023-10-31 20:11:32.813
1.1537383,0.27159423,0.017920852,0.0,0.38741666,0.34915638,0.23680626,0.0,0.61336815,0.27023745,0.20969431,0.0,0.6781724,0.4963285,0.28718215,0.0,0.24327303,0.13821049,0.36569533,0.0,951.31866,869.92676,845.34796,662.01465,804.65204,0.05279541015625,0.03125,0.99273681640625,1.637420654296875,2.91595458984375,3.170166015625,1.0,2.0,1.0,1.0,4.0,93.2,0.0,2023-10-31 20:11:33.823
1.1537383,0.27159423,0.46047857,0.0,0.38741666,0.34915638,0.4106923,0.0,0.61336815,0.27023745,0.57604706,0.0,0.6781724,0.4963285,0.798929,0.0,0.24327303,0.13821049,0.50556576,0.0,954.5421,863.8828,842.1245,1077.033,997.25275,0.03631591796875,0.02569580078125,1.00213623046875,1.83929443359375,0.426177978515625,4.119720458984375,1.0,2.0,1.0,1.0,4.0,93.2,0.0,2023-10-31 20:11:34.828
1.1537383,0.4811506,0.0024243835,0.0,0.38741666,0.044545542,0.05706362,0.0,0.61336815,0.18014188,0.58428586,0.0,0.6781724,0.15306838,0.44424272,0.0,0.24327303,0.37125435,0.24461971,0.0,827.619,855.82416,855.42126,942.4542,908.60803,0.00213623046875,0.016845703125,0.99578857421875,2.444915771484375,2.0635986328125,5.121612548828125,1.0,2.0,1.0,1.0,2.0,93.2,0.0,2023-10-31 20:11:35.832
0.92661136,0.26571977,0.076048255,0.0,0.97662795,0.38681513,0.21508625,0.0,1.1491783,0.28306374,0.26537165,0.0,0.46167916,0.14486577,0.4474749,0.0,0.0029243475,0.3583541,0.25734878,0.0,894.90845,859.0476,848.1685,1025.4579,887.6557,0.0101318359375,0.01287841796875,0.9971923828125,0.73272705078125,2.6617431640625,3.955230712890625,1.0,1.0,1.0,1.0,2.0,93.2,0.0,2023-10-31 20:11:36.839
0.89679855,0.35972276,0.14446071,0.0,1.0328014,0.44300276,0.15480852,0.0,1.0415232,0.09748327,0.2218997,0.0,0.41544995,0.26897037,0.5431712,0.0,0.021875994,0.4248513,0.3839982,0.0,800.2198,848.5714,862.27106,811.0989,829.2308,0.00115966796875,0.0228271484375,1.00274658203125,0.13458251953125,3.409423828125,3.342132568359375,1.0,1.0,1.0,1.0,1.0,93.2,0.0,2023-10-31 20:11:37.848
1.0145013,0.1597093,0.17335625,0.0,1.2816948,0.400804,0.22991624,0.0,1.3121325,0.09321051,0.28666687,0.0,0.5239959,0.23200367,0.6241113,0.0,0.1677032,0.15817396,0.42045268,0.0,809.4872,854.21246,863.8828,838.49817,756.7033,0.004638671875,0.0177001953125,0.99609375,0.97198486328125,0.530853271484375,6.6693115234375,1.0,1.0,1.0,1.0,1.0,93.2,0.0,2023-10-31 20:11:38.848
1.0145013,0.19087337,0.10859744,0.0,1.2816948,0.3032691,0.33258897,0.0,1.3121325,0.16611971,0.44464073,0.0,0.5239959,0.17283718,0.6098619,0.0,0.1677032,0.0974569,0.5361882,0.0,828.8278,859.0476,840.9158,936.4103,869.92676,0.10150146484375,0.0780029296875,0.9830322265625,5.689849853515625,1.263580322265625,2.519683837890625,1.0,1.0,1.0,1.0,4.0,93.2,0.0,2023-10-31 20:11:39.855
1.0145013,0.3875588,0.47510985,0.0,1.2816948,0.14458278,0.29561135,0.0,1.3121325,0.033121996,0.35681534,0.0,0.5239959,0.25474045,0.5461744,0.0,0.1677032,0.0751553,0.5500375,0.0,678.1319,840.9158,855.42126,870.32965,568.1319,0.11151123046875,0.114501953125,0.9705810546875,0.575714111328125,6.4599609375,13.02459716796875,1.0,2.0,1.0,1.0,4.0,93.2,0.0,2023-10-31 20:11:40.866
1.0145013,0.77359724,1.0106161,0.0,1.2816948,0.15173972,0.3750127,0.0,1.3121325,0.014568026,0.48726428,0.0,0.5239959,0.23513368,0.44602445,0.0,0.1677032,0.007107431,0.274622,0.0,880.80585,844.1392,861.8681,780.4762,941.6484,0.01959228515625,0.0814208984375,0.99530029296875,0.55328369140625,2.729034423828125,6.2506103515625,1.0,2.0,1.0,1.0,4.0,93.17,0.0,2023-10-31 20:11:41.871
1.0145013,0.1458744,0.7931229,0.0,1.2816948,0.122771956,0.4256388,0.0,1.3121325,0.2724856,0.4539124,0.0,0.5239959,0.14596175,0.5155344,0.0,0.1677032,0.026286308,0.34499744,0.0,752.27106,850.58606,852.1978,639.85345,766.77655,0.04278564453125,0.09161376953125,0.99468994140625,0.740203857421875,3.6785888671875,3.69354248046875,1.0,2.0,1.0,1.0,2.0,93.17,0.0,2023-10-31 20:11:42.882
1.0145013,0.65168226,1.0552076,0.0,1.2816948,0.1998107,0.5204181,0.0,1.3121325,0.51306176,0.66109484,0.0,0.5239959,0.23464237,0.5496218,0.0,0.1677032,0.07847574,0.4220232,0.0,794.9817,837.28937,857.4359,485.53113,694.2491,0.0341796875,0.0965576171875,0.99456787109375,1.016845703125,0.710296630859375,4.732818603515625,1.0,2.0,1.0,1.0,2.0,93.17,0.0,2023-10-31 20:11:43.888
1.0145013,0.88287306,1.1475718,0.0,1.2816948,0.45359322,0.67102027,0.0,1.3121325,0.6697467,0.9285751,0.0,0.5239959,0.21050453,0.55080384,0.0,0.1677032,0.102724664,0.31311998,0.0,665.64105,838.0952,856.2271,397.69232,776.04395,0.0428466796875,0.0977783203125,0.9853515625,1.06170654296875,3.09539794921875,4.5458984375,1.0,2.0,1.0,1.0,2.0,93.17,0.0,2023-10-31 20:11:44.897
1.0145013,0.26003549,0.6593664,0.0,1.2816948,0.034808934,0.44689876,0.0,1.3121325,0.3648792,0.8568803,0.0,0.5239959,0.17361033,0.47390094,0.0,0.1677032,0.12745728,0.38125002,0.0,810.696,862.27106,866.30035,953.73627,904.17584,0.00042724609375,0.1207275390625,0.9970703125,1.435546875,4.97955322265625,6.676788330078125,1.0,2.0,1.0,1.0,2.0,93.17,0.0,2023-10-31 20:11:45.899
1.0145013,0.4132506,0.13686678,0.0,1.2816948,0.112102285,0.1104773,0.0,1.3121325,0.2361123,0.42688528,0.0,0.5239959,0.1809983,0.50139457,0.0,0.1677032,0.046295926,0.3285727,0.0,827.619,845.34796,858.6447,866.30035,893.69965,0.00225830078125,0.12921142578125,0.9869384765625,1.09161376953125,3.887939453125,3.955230712890625,1.0,2.0,1.0,1.0,2.0,93.17,0.0,2023-10-31 20:11:46.904
1.0145013,0.073815584,0.29338256,0.0,1.2816948,0.38867518,0.06141579,0.0,1.3121325,0.021373097,0.16306518,0.0,0.5239959,0.17097305,0.42869386,0.0,0.1677032,0.052258693,0.1799514,0.0,821.978,837.28937,847.3626,766.77655,880.0,0.00408935546875,0.13360595703125,0.98565673828125,0.8074951171875,2.452392578125,4.418792724609375,1.0,2.0,1.0,1.0,2.0,93.17,0.0,2023-10-31 20:11:47.914
1.0145013,0.40212345,0.61452955,0.0,1.2816948,0.031004475,0.10962666,0.0,1.3121325,0.14075734,0.2827632,0.0,0.5239959,0.11215476,0.57303786,0.0,0.1677032,0.02065296,0.47862393,0.0,886.04395,861.8681,863.8828,613.2601,1022.23444,0.01739501953125,0.08056640625,0.9931640625,0.351409912109375,3.342132568359375,13.794708251953123,1.0,2.0,1.0,1.0,2.0,93.17,0.0,2023-10-31 20:11:48.920
1.0145013,0.918022,0.6781646,0.0,1.2816948,0.42381728,0.2636911,0.0,1.3121325,0.07343016,0.41453323,0.0,0.5239959,0.18109882,0.6510037,0.0,0.1677032,0.014626387,0.57788473,0.0,867.9121,855.82416,850.989,754.68866,804.65204,0.00537109375,0.10064697265625,0.99053955078125,0.710296630859375,6.57958984375,1.742095947265625,1.0,2.0,1.0,1.0,2.0,93.17,0.0,2023-10-31 20:11:49.930
1.0145013,0.046856504,0.06566535,0.0,1.2816948,0.14628339,0.0030237166,0.0,1.3121325,0.32713825,0.78421474,0.0,0.5239959,0.32298386,0.9203523,0.0,0.1677032,0.020328553,0.58281124,0.0,915.4579,855.0183,852.6007,1010.14655,895.7143,0.00457763671875,0.08001708984375,0.9892578125,1.3458251953125,2.669219970703125,3.8580322265625,1.0,2.0,1.0,1.0,2.0,93.17,0.0,2023-10-31 20:11:50.937
0.72918737,0.10777205,0.051310744,0.0,0.9571994,0.1256778,0.060974613,0.0,1.0925102,0.36691305,0.7035397,0.0,0.49159142,0.28686666,0.78532773,0.0,0.21825926,0.037048236,0.54284304,0.0,904.17584,854.21246,848.97437,987.1795,875.56775,0.0140380859375,0.09539794921875,0.99444580078125,0.73272705078125,2.28790283203125,4.1571044921875,1.0,1.0,1.0,1.0,1.0,93.13,0.0,2023-10-31 20:11:51.946
0.9459089,0.46215728,0.067768514,1.0322013,0.7183666,0.4959716,0.31219283,1.3764862,1.0852848,0.036589082,0.468033,1.5266749,0.34340367,0.18021427,0.54976165,1.3565758,0.122551054,0.112099126,0.4831415,1.1926624,909.011,858.24176,840.10986,958.5714,895.7143,0.00244140625,0.08758544921875,0.98980712890625,1.487884521484375,3.401947021484375,3.06549072265625,1.0,1.0,1.0,1.0,1.0,93.13,0.0,2023-10-31 20:11:52.961
1.2533847,0.35315412,0.15795928,1.0322013,0.8434163,0.503949,0.12249874,1.3764862,0.8867716,0.13027777,0.548769,1.5266749,0.5397184,0.1737531,0.714954,1.3565758,0.10282552,0.059146408,0.33765134,1.1926624,941.6484,844.1392,850.58606,1242.2344,933.5897,0.0006103515625,0.099365234375,0.99456787109375,0.575714111328125,2.983245849609375,4.747772216796875,1.0,1.0,1.0,1.0,1.0,93.13,0.0,2023-10-31 20:11:53.970
1.2783316,0.057636596,0.49809536,0.9848763,1.0066478,0.19999051,0.122069776,1.2917081,0.84083426,0.10698922,0.31478444,1.4022666,0.7826091,0.36507106,0.8944084,1.3604809,0.3686935,0.35689226,0.39808097,1.1831173,911.4286,853.4066,849.3773,1015.78754,884.0293,0.0111083984375,0.080810546875,0.99713134765625,1.502838134765625,3.54400634765625,3.745880126953125,1.0,1.0,1.0,1.0,2.0,93.13,0.0,2023-10-31 20:11:54.980
1.2591767,0.102030575,0.04720795,0.9848763,0.9934406,0.26627195,0.06453039,1.2917081,0.76823765,0.09779197,0.348051,1.4022666,0.39805758,0.21910502,0.6643601,1.3604809,0.13907255,0.078327574,0.52157426,1.1831173,840.10986,861.8681,853.00366,838.49817,809.89014,0.01580810546875,0.08770751953125,0.990966796875,0.560760498046875,2.10845947265625,3.730926513671875,1.0,1.0,1.0,1.0,1.0,93.13,0.0,2023-10-31 20:11:55.985
0.9445435,0.46718657,0.08042499,0.9848763,0.80439377,0.40483496,0.19614242,1.2917081,0.9296078,0.17531587,0.26861867,1.4022666,0.5270831,0.13073653,0.6761368,1.3604809,0.13526382,0.0065672845,0.5527167,1.1831173,865.89746,855.0183,853.8095,917.0696,840.10986,0.01568603515625,0.09716796875,0.993896484375,1.218719482421875,2.19818115234375,4.015045166015625,1.0,1.0,1.0,1.0,1.0,93.13,0.0,2023-10-31 20:11:56.993
0.9967155,0.6077558,0.3985717,1.413648,0.81456536,0.52082074,0.3212481,1.5778302,1.1737229,0.21606801,0.20765734,1.9141693,0.32776213,0.19993266,0.5440595,1.417331,0.07639537,0.013684493,0.37194028,1.2989911,778.0586,850.58606,850.989,645.09155,775.2381,0.01763916015625,0.09637451171875,0.989501953125,1.15142822265625,2.295379638671875,4.42626953125,1.0,1.0,1.0,1.0,1.0,93.13,0.0,2023-10-31 20:11:58.001
1.1476303,0.50576377,0.25666654,1.6283317,0.9267148,0.44348767,0.26541242,1.381424,1.328164,0.25271145,0.2273806,1.7419475,0.31020734,0.21989986,0.40375036,1.4778695,0.05021533,0.1090832,0.2865861,1.3941736,758.71796,852.1978,847.76556,722.8571,791.75824,0.0018310546875,0.0911865234375,0.99755859375,0.43365478515625,4.94964599609375,3.416900634765625,1.0,1.0,1.0,1.0,1.0,93.13,0.0,2023-10-31 20:11:59.010
1.315806,0.6440926,0.34417552,1.590103,1.1754808,0.22387515,0.3829921,1.3130561,1.3298259,0.0032349855,0.7445092,1.645922,0.48730943,0.30067104,0.5490316,1.2565548,0.047571644,0.38197842,0.4667128,1.061448,770.0,847.76556,870.32965,652.74725,780.4762,0.0030517578125,0.0926513671875,0.99200439453125,0.814971923828125,2.64678955078125,4.314117431640625,1.0,1.0,1.0,1.0,1.0,93.13,0.0,2023-10-31 20:12:00.027
0.7464803,0.50869644,0.06843277,1.5754026,0.60497475,0.3067702,0.1273276,1.2631259,0.89547193,0.048757993,0.38743654,1.6789262,0.39898318,0.3097882,0.6540173,1.2494621,0.26468146,0.16862282,0.56170136,1.0265237,803.0403,840.9158,869.5238,714.7985,829.6337,0.00701904296875,0.0924072265625,0.9952392578125,0.874786376953125,2.85614013671875,3.820648193359375,1.0,1.0,1.0,1.0,1.0,93.13,0.0,2023-10-31 20:12:01.035
1.0092325,0.21351846,0.33204404,1.6226926,0.74894875,0.27179834,0.27627197,1.1724479,0.9073766,0.037948973,0.25433722,1.5153644,0.4290992,0.22367771,0.62976307,1.2217941,0.22153668,0.22552358,0.42075646,0.95789236,769.19415,854.61536,865.89746,680.9524,836.08057,0.00714111328125,0.0947265625,0.99053955078125,2.07855224609375,3.476715087890625,4.5458984375,1.0,1.0,1.0,1.0,1.0,93.11,0.0,2023-10-31 20:12:02.041
1.1993064,0.051711172,0.16260774,1.6226926,0.92477655,0.12150223,0.16697995,1.1724479,1.2622471,0.24038419,0.594666,1.5153644,0.47662413,0.44695237,0.80848,1.2217941,0.26687294,0.052199934,0.8174521,0.95789236,1030.6959,850.18317,832.4542,290.91574,665.2381,0.07177734375,0.06329345703125,0.9852294921875,13.74237060546875,2.145843505859375,2.190704345703125,1.0,1.0,1.0,1.0,1.0,93.11,0.0,2023-10-31 20:12:03.050
1.0101968,0.076426625,0.12790942,1.6226926,1.0240608,0.24515171,0.13525191,1.1724479,1.2622471,0.19938713,0.6039239,1.5153644,0.41489336,0.5350948,0.83191603,1.2217941,0.29677653,0.18877864,0.8284662,0.95789236,692.23444,845.7509,858.24176,1372.7839,861.8681,0.0474853515625,0.1676025390625,0.9964599609375,13.615264892578123,2.743988037109375,0.79254150390625,1.0,1.0,1.0,1.0,4.0,93.11,0.0,2023-10-31 20:12:04.058
1.0101968,0.11800509,0.1947115,1.6226926,1.0240608,0.30804822,0.34408882,1.1724479,1.2622471,0.11478137,0.14153646,1.5153644,0.41489336,0.25196818,0.5421295,1.2217941,0.29677653,0.10573238,0.34437966,0.95789236,774.0293,853.4066,862.27106,697.0696,877.1795,0.04425048828125,0.126220703125,0.9813232421875,5.390777587890625,3.147735595703125,0.426177978515625,1.0,2.0,1.0,1.0,2.0,93.11,0.0,2023-10-31 20:12:05.066
1.0101968,0.44522312,0.026930705,1.6226926,1.0240608,0.18724233,0.13803202,1.1724479,1.2622471,0.1371611,0.43590057,1.5153644,0.41489336,0.24494725,0.6330117,1.2217941,0.29677653,0.09232462,0.5273417,0.95789236,857.4359,861.8681,856.63007,1498.4982,810.293,0.02801513671875,0.2864990234375,0.94989013671875,6.631927490234375,4.02252197265625,9.25628662109375,1.0,2.0,1.0,1.0,4.0,93.11,0.0,2023-10-31 20:12:06.075
1.0101968,0.16714676,0.220185,1.6226926,1.0240608,0.16684404,0.033752676,1.1724479,1.2622471,0.01755742,0.5031556,1.5153644,0.41489336,0.25361526,0.6452151,1.2217941,0.29677653,0.120888025,0.6516438,0.95789236,921.0989,853.4066,868.71796,1372.7839,884.43225,0.00592041015625,0.3292236328125,0.94281005859375,15.663909912109377,2.3028564453125,4.927215576171875,1.0,2.0,1.0,1.0,4.0,93.11,0.0,2023-10-31 20:12:07.077
1.0101968,0.4699019,0.19066073,1.6226926,1.0240608,0.22889137,0.14875047,1.1724479,1.2622471,0.13491666,0.6181537,1.5153644,0.41489336,0.18325149,0.5259969,1.2217941,0.29677653,0.30888018,0.5078241,0.95789236,929.5604,866.7033,846.1539,996.04395,919.4872,0.02227783203125,0.15057373046875,0.986572265625,1.173858642578125,2.9010009765625,2.811279296875,1.0,2.0,1.0,1.0,2.0,93.11,0.0,2023-10-31 20:12:08.080
1.0101968,0.47328687,0.014997671,1.6226926,1.0240608,0.327544,0.03074881,1.1724479,1.2622471,0.21693218,0.5149217,1.5153644,0.41489336,0.21276486,0.58414465,1.2217941,0.29677653,0.23601428,0.4385627,0.95789236,914.65204,856.2271,847.3626,999.2674,927.5458,0.0186767578125,0.142822265625,0.98651123046875,0.2392578125,2.3028564453125,5.390777587890625,1.0,2.0,1.0,1.0,2.0,93.11,0.0,2023-10-31 20:12:09.080
1.0101968,0.33850598,0.20540649,1.6226926,1.0240608,0.17134416,0.20877396,1.1724479,1.2622471,0.016859433,0.34939674,1.5153644,0.41489336,0.17132376,0.6703891,1.2217941,0.29677653,0.29836485,0.54216707,0.95789236,914.2491,855.82416,851.39197,991.2088,889.2674,0.02398681640625,0.1461181640625,0.99212646484375,0.142059326171875,2.6019287109375,4.68048095703125,1.0,2.0,1.0,1.0,2.0,93.11,0.0,2023-10-31 20:12:10.082
1.0101968,0.160506,0.16328844,1.6226926,1.0240608,0.25686562,0.29331663,1.1724479,1.2622471,0.0821027,0.25165215,1.5153644,0.41489336,0.048319116,0.5854413,1.2217941,0.29677653,0.18236664,0.4566538,0.95789236,928.7546,865.09155,829.6337,1064.1392,911.4286,0.025146484375,0.1553955078125,0.99139404296875,0.64300537109375,3.910369873046875,3.12530517578125,1.0,2.0,1.0,1.0,2.0,93.11,0.0,2023-10-31 20:12:11.085
1.0101968,0.37897405,0.0016921221,1.6226926,1.0240608,0.20674922,0.2562313,1.1724479,1.2622471,0.31432217,0.841351,1.5153644,0.41489336,0.3816496,0.97746503,1.2217941,0.29677653,0.1703443,0.73916376,0.95789236,922.71063,860.2564,839.304,1003.2967,918.68134,0.0328369140625,0.153076171875,0.98028564453125,1.203765869140625,1.772003173828125,4.0972900390625,1.0,2.0,1.0,1.0,2.0,93.08,0.0,2023-10-31 20:12:12.089
0.8606711,0.45827967,0.2029469,1.6226926,0.63495433,0.45878512,0.03571659,1.1724479,0.9009517,0.31432217,0.87385166,1.5153644,0.32194188,0.37058207,0.963629,1.2217941,0.008325325,0.17796808,0.7785674,0.95789236,916.6667,861.8681,844.94507,1008.5348,896.9231,0.02764892578125,0.14862060546875,0.9844970703125,0.979461669921875,2.43743896484375,2.94586181640625,1.0,1.0,1.0,1.0,1.0,93.08,0.0,2023-10-31 20:12:13.093
0.5920686,0.5334796,0.38854355,1.4221318,0.74633604,0.51433676,0.06297618,1.4542941,1.0463119,0.056928866,0.3843751,1.7576519,0.29087687,0.21671543,0.6355769,1.2528054,0.08073542,0.0054975296,0.5494736,1.0494094,922.3077,862.674,831.2454,974.68866,860.2564,0.0455322265625,0.155029296875,0.980712890625,0.456085205078125,4.78515625,3.9178466796875,1.0,1.0,1.0,1.0,1.0,93.08,0.0,2023-10-31 20:12:14.097
0.8221146,0.68936175,0.012292845,1.2702054,0.56761557,0.58860713,0.33187163,1.1966455,0.9955474,0.15297914,0.2609998,1.4134645,0.27528062,0.24712582,0.70346004,1.2814717,0.036195565,0.03497391,0.6607738,1.0412946,867.9121,857.03296,845.7509,981.9414,909.41394,0.044677734375,0.158447265625,0.9825439453125,1.831817626953125,1.383209228515625,4.08233642578125,1.0,1.0,1.0,1.0,1.0,93.08,0.0,2023-10-31 20:12:15.097
1.2811575,0.46836787,0.15068479,1.2702054,1.0083162,0.6376086,0.48384026,1.1966455,0.9038462,0.4381018,0.14136003,1.4134645,0.17741859,0.24696118,0.59200513,1.2814717,0.022339117,0.2959086,0.44588435,1.0412946,880.40295,850.18317,862.27106,921.50183,881.6117,0.03515625,0.158935546875,0.9844970703125,0.478515625,2.908477783203125,3.566436767578125,1.0,1.0,1.0,1.0,1.0,93.08,0.0,2023-10-31 20:12:16.097
0.86395335,0.20445783,0.37483096,1.6194923,0.43789098,0.39616093,0.18003254,1.7230283,0.7208254,0.13043694,0.26837555,1.5333489,0.35809368,0.182714,0.66639984,1.1358494,0.039007798,0.40423897,0.38320497,0.4635867,899.34064,869.12085,840.10986,966.2271,902.5641,0.0321044921875,0.14459228515625,0.98291015625,1.375732421875,1.981353759765625,3.730926513671875,1.0,1.0,1.0,1.0,1.0,93.08,0.0,2023-10-31 20:12:17.097
0.7205258,0.1428731,0.07384476,1.6194923,0.38777435,0.29960126,0.30324823,1.7230283,0.8123437,0.015698688,0.2354517,1.5333489,0.22616976,0.2132344,0.72045213,1.1358494,0.03481524,0.26445445,0.53950953,0.4635867,920.696,865.09155,844.5421,983.95605,890.07324,0.0294189453125,0.14422607421875,0.99090576171875,1.173858642578125,2.73651123046875,4.927215576171875,1.0,1.0,1.0,1.0,1.0,93.08,0.0,2023-10-31 20:12:18.097
0.78174204,0.65419054,0.012442973,1.6194923,0.653326,0.46005347,0.051282097,1.7230283,0.93137544,8.445466e-05,0.09970613,1.5333489,0.23361608,0.19025014,0.6761332,1.1358494,0.32204324,0.2312077,0.57688695,0.4635867,851.39197,854.61536,871.9414,870.7326,838.9011,0.029052734375,0.145263671875,0.98626708984375,0.680389404296875,2.310333251953125,4.08233642578125,1.0,1.0,1.0,1.0,1.0,93.08,0.0,2023-10-31 20:12:19.101
0.811773,0.5052299,0.19461498,0.93254274,0.7228772,0.6933968,0.1937588,0.94513255,0.75863737,0.10453452,0.20704775,1.5298188,0.28979576,0.20565629,0.5249719,0.9747998,0.24410963,0.31280404,0.45585155,0.53521436,790.14655,856.63007,865.09155,736.1539,813.1135,0.02105712890625,0.14617919921875,0.98876953125,0.396270751953125,1.973876953125,3.9178466796875,1.0,1.0,1.0,1.0,1.0,93.08,0.0,2023-10-31 20:12:20.105
0.6625166,0.19648758,0.058640976,1.4677025,0.12773816,0.28772143,0.10960445,1.461446,0.122216925,0.36306986,0.44837284,1.4925756,0.32006127,0.18421453,0.40397295,1.0693498,0.028118068,0.13617893,0.48613867,0.51685405,802.6374,858.6447,865.4945,729.304,795.78754,0.02117919921875,0.14031982421875,0.98779296875,1.42059326171875,2.459869384765625,4.02252197265625,1.0,1.0,1.0,1.0,1.0,93.08,0.0,2023-10-31 20:12:21.109
0.51707816,0.3481174,0.11571952,1.5434498,0.08230034,0.2800327,0.12253527,1.6656011,0.015024953,0.090068564,0.5941896,1.5242972,0.32233566,0.1960565,0.47876722,1.0679524,0.0019382916,0.15113339,0.44664815,0.50824827,830.84247,850.18317,859.45056,796.1905,788.93774,0.02777099609375,0.14007568359375,0.98760986328125,0.605621337890625,3.0804443359375,0.52337646484375,1.0,1.0,1.0,1.0,1.0,93.05,0.0,2023-10-31 20:12:22.113
0.86798626,0.73148155,0.12870912,1.4331661,0.5955583,0.6085832,0.16906145,1.5387115,0.7195181,0.119976275,0.41734302,1.0914403,0.32558405,0.2151739,0.5738916,0.8552412,0.029569404,0.1201843,0.4777748,0.5019436,765.56775,850.58606,864.2857,690.2198,792.5641,0.03656005859375,0.13720703125,0.98724365234375,0.79254150390625,1.973876953125,4.38140869140625,1.0,1.0,1.0,1.0,1.0,93.05,0.0,2023-10-31 20:12:23.114
1.0602108,0.49830046,0.1369989,1.1081425,0.5910035,0.32021552,0.13319631,1.2097054,0.8499943,0.012745065,0.29794815,1.4814141,0.2969077,0.29664904,0.6849139,0.83082503,0.14117275,0.27272353,0.53877777,0.48756358,776.4469,840.5128,876.77655,694.2491,788.1319,0.03399658203125,0.142333984375,0.9873046875,0.680389404296875,2.25799560546875,3.57391357421875,1.0,1.0,1.0,1.0,1.0,93.05,0.0,2023-10-31 20:12:24.114
1.3894293,0.031381715,0.2774854,1.3871028,1.1805323,0.025052724,0.3758258,1.5985973,1.2659191,0.011273209,0.48200423,1.8056027,0.25758502,0.20381394,0.72878504,0.86891645,0.0023134798,0.26461002,0.63442725,0.5545306,803.0403,849.3773,873.95605,748.24176,814.7253,0.03106689453125,0.142578125,0.9857177734375,0.755157470703125,3.147735595703125,4.463653564453125,1.0,1.0,1.0,1.0,1.0,93.05,0.0,2023-10-31 20:12:25.117
1.4603344,0.13824838,0.0044606347,1.6694599,1.252991,0.15887336,0.36315215,1.8363987,1.2427865,0.07655268,0.573966,1.7507799,0.19856758,0.25881425,0.5982776,0.79236823,0.10865845,0.19518244,0.6405334,0.5331497,768.7912,848.97437,855.82416,697.47253,807.0696,0.04248046875,0.143798828125,0.9857177734375,0.3887939453125,3.4393310546875,3.7384033203125,1.0,1.0,1.0,1.0,1.0,93.05,0.0,2023-10-31 20:12:26.122
0.7931636,0.6236041,0.8870327,1.6694599,0.7760054,0.12498558,0.3505924,1.8363987,1.0080848,0.04607516,0.4432215,1.7507799,0.41980132,0.21407685,0.6286121,0.79236823,0.09253756,0.086412296,0.68864334,0.5331497,782.0879,848.1685,833.2601,616.08057,833.2601,0.06134033203125,0.09918212890625,0.98956298828125,2.13836669921875,0.979461669921875,3.671112060546875,1.0,1.0,1.0,1.0,1.0,93.05,0.0,2023-10-31 20:12:27.125
0.7931636,0.6871136,1.0620986,1.6694599,0.7760054,0.17983219,0.564592,1.8363987,1.0080848,0.07866738,0.4295336,1.7507799,0.41980132,0.1869597,0.6358506,0.79236823,0.09253756,0.033012766,0.67250675,0.5331497,800.2198,838.49817,861.06226,726.8865,843.73627,0.0250244140625,0.087890625,0.99920654296875,0.97198486328125,0.9869384765625,5.764617919921875,1.0,1.0,1.0,1.0,1.0,93.05,0.0,2023-10-31 20:12:28.131
0.7931636,0.3169172,0.49350196,1.6694599,0.7760054,0.45092952,0.20277911,1.8363987,1.0080848,0.07878187,0.41546547,1.7507799,0.41980132,0.1893498,0.68423945,0.79236823,0.09253756,0.019001396,0.45620552,0.5331497,766.3736,856.63007,867.50916,606.0073,778.86444,0.02081298828125,0.08978271484375,0.9921875,0.276641845703125,1.876678466796875,3.850555419921875,1.0,2.0,1.0,1.0,2.0,93.05,0.0,2023-10-31 20:12:29.132
0.7931636,0.12800501,0.18659948,1.6694599,0.7760054,0.47557077,0.4712142,1.8363987,1.0080848,0.03512303,0.19822203,1.7507799,0.41980132,0.16887455,0.72293794,0.79236823,0.09253756,0.12326756,0.45034382,0.5331497,813.91943,849.3773,864.68866,768.7912,802.6374,0.0269775390625,0.0921630859375,0.99005126953125,0.059814453125,2.115936279296875,3.551483154296875,1.0,2.0,1.0,1.0,2.0,93.05,0.0,2023-10-31 20:12:30.142
0.7931636,0.22235309,0.4345571,1.6694599,0.7760054,0.10456746,0.42760465,1.8363987,1.0080848,0.054379147,0.45585188,1.7507799,0.41980132,0.05803087,0.56726724,0.79236823,0.09253756,0.26222786,0.35353297,0.5331497,871.13556,852.6007,861.06226,805.4579,868.71796,0.02569580078125,0.096923828125,0.9945068359375,0.3289794921875,3.775787353515625,5.884246826171875,1.0,2.0,1.0,1.0,2.0,93.05,0.0,2023-10-31 20:12:31.147
0.79217476,0.097203076,0.39285997,1.6694599,0.51587814,0.26053628,0.22598965,1.8363987,0.44509715,0.10334712,0.41380674,1.7507799,0.42349312,0.19407678,0.6638324,0.79236823,0.07264525,0.22518156,0.3695103,0.5331497,827.619,843.3333,843.73627,724.4689,821.5751,0.02362060546875,0.10321044921875,0.99212646484375,0.665435791015625,3.566436767578125,6.377716064453125,1.0,2.0,1.0,1.0,2.0,93.02,0.0,2023-10-31 20:12:32.149
0.79217476,0.21434854,0.49673533,1.6694599,0.51587814,0.23146537,0.30013958,1.8363987,0.44509715,0.12757061,0.200803,1.7507799,0.42349312,0.24031688,0.59265125,0.79236823,0.07264525,0.0876973,0.6516065,0.5331497,898.1319,854.21246,859.0476,941.6484,859.85345,0.01837158203125,0.105712890625,0.99395751953125,1.398162841796875,1.4056396484375,2.654266357421875,1.0,1.0,1.0,1.0,1.0,93.02,0.0,2023-10-31 20:12:33.154
0.79217476,0.6031495,0.8723438,1.6694599,0.51587814,0.13791858,0.51564324,1.8363987,0.44509715,0.21535441,0.6126073,1.7507799,0.42349312,0.22840859,0.7057726,0.79236823,0.07264525,0.16949798,0.65564317,0.5331497,882.4176,857.8388,843.3333,973.0769,892.8938,0.02691650390625,0.11346435546875,0.99072265625,0.64300537109375,2.7215576171875,3.24493408203125,1.0,1.0,1.0,1.0,1.0,93.02,0.0,2023-10-31 20:12:34.155
0.6649555,0.4852025,0.6032437,1.6694599,0.7132432,0.09052367,0.23824158,1.8363987,0.23906751,0.17696814,0.6309301,1.7507799,0.16156623,0.23841113,0.7373607,0.79236823,0.19071011,0.024093652,0.5249615,0.5331497,923.5165,854.21246,830.4396,1024.249,914.65204,0.01190185546875,0.1124267578125,0.99578857421875,1.517791748046875,1.876678466796875,4.306640625,1.0,1.0,1.0,1.0,1.0,93.02,0.0,2023-10-31 20:12:35.157
0.94311213,0.51852274,0.57950324,1.644477,0.5540352,0.058810223,0.090782955,1.7707297,0.615986,0.13174424,0.37262738,1.6958138,0.123733126,0.16864924,0.5601194,0.9483297,0.035435874,0.11379354,0.35216504,0.49376452,910.2198,854.61536,855.82416,1017.8022,894.5055,0.01068115234375,0.11322021484375,0.98736572265625,0.800018310546875,2.4822998046875,3.132781982421875,1.0,1.0,1.0,1.0,1.0,93.02,0.0,2023-10-31 20:12:36.163
1.2667434,0.824763,0.7861223,1.4900578,0.49526992,0.42409202,0.12206905,1.7975181,0.58665913,0.122995116,0.26483703,1.6638962,0.14231014,0.14750475,0.4182068,0.8835884,0.12835144,0.03759777,0.37469107,0.500886,885.2381,844.1392,855.82416,970.2564,844.5421,0.01470947265625,0.11614990234375,0.99017333984375,0.8673095703125,3.03558349609375,3.84307861328125,1.0,1.0,1.0,1.0,1.0,93.02,0.0,2023-10-31 20:12:37.163
1.2667434,0.26620355,0.85489476,1.4900578,0.49526992,0.3431757,0.0133121265,1.7975181,0.58665913,0.20983289,0.5403911,1.6638962,0.14231014,0.2761613,0.6023616,0.8835884,0.12835144,0.058821663,0.4034867,0.500886,911.4286,862.674,828.4249,970.2564,917.8755,0.02203369140625,0.1224365234375,0.9896240234375,0.59814453125,3.207550048828125,4.20196533203125,1.0,1.0,1.0,1.0,1.0,93.02,0.0,2023-10-31 20:12:38.166
1.2572186,0.33883107,0.76252854,1.4887896,1.1171373,0.24782498,0.06663683,1.5850011,1.4394596,0.27168164,0.72494334,1.8799982,0.550733,0.40912187,0.79138124,0.74135065,0.42975384,0.08927388,0.6427998,0.57729757,922.71063,866.30035,846.1539,1026.2638,917.0696,0.023681640625,0.12176513671875,0.9896240234375,1.368255615234375,2.70660400390625,3.81317138671875,1.0,1.0,1.0,1.0,1.0,93.02,0.0,2023-10-31 20:12:39.171
0.91290903,0.42670462,0.5295847,1.2261244,1.185189,0.052314926,0.069086745,1.509,1.4238908,0.1383583,0.6615296,1.6862459,0.56594956,0.33050558,0.7253252,0.7328578,0.38901594,0.07618455,0.71888256,0.4287671,892.49084,862.27106,861.8681,906.1905,833.2601,0.014892578125,0.1201171875,0.98944091796875,0.88226318359375,2.40753173828125,4.11224365234375,1.0,1.0,1.0,1.0,1.0,93.02,0.0,2023-10-31 20:12:40.173
1.338702,0.12816627,0.09940684,1.2261244,1.3184545,0.09691087,0.11831016,1.509,1.2930689,0.09696545,0.46217084,1.6862459,0.46526694,0.1319425,0.55937666,0.7328578,0.044841394,0.06430068,0.5385906,0.4287671,888.0586,849.3773,843.73627,933.1868,857.8388,0.01031494140625,0.117431640625,0.990234375,1.06170654296875,2.250518798828125,4.658050537109375,1.0,1.0,1.0,1.0,1.0,93.02,0.0,2023-10-31 20:12:41.179
1.5198424,0.37937585,0.42364463,1.2261244,1.4703529,0.19625531,0.19320305,1.509,1.2930689,0.35349527,0.30607072,1.6862459,0.49373323,0.47918448,0.50876796,0.7328578,0.06519096,0.068617724,0.3428897,0.4287671,1011.75824,862.674,852.6007,981.13556,849.7802,0.0634765625,0.11785888671875,0.991455078125,1.6748046875,2.1533203125,0.07476806640625,1.0,1.0,1.0,1.0,1.0,92.95,0.0,2023-10-31 20:12:42.179
1.5161142,0.4476094,0.3384694,1.2261244,1.4748596,0.28588024,0.0046765627,1.509,1.2767712,0.40285408,0.58673364,1.6862459,0.45903206,0.50556856,0.68789387,0.7328578,0.062281508,0.20433357,0.33727774,0.4287671,849.7802,853.8095,860.2564,851.39197,847.3626,0.03948974609375,0.11932373046875,0.98992919921875,0.515899658203125,1.966400146484375,3.043060302734375,1.0,1.0,1.0,1.0,1.0,92.95,0.0,2023-10-31 20:12:43.179
0.64883405,0.008892629,0.16953269,1.2261244,0.61621666,0.30761653,0.03118113,1.509,0.6190464,0.15776661,0.5849113,1.6862459,0.20415884,0.1727634,0.5761695,0.7328578,0.024054915,0.037526935,0.32917058,0.4287671,866.30035,856.63007,844.1392,894.90845,814.3223,0.031982421875,0.1103515625,0.99627685546875,1.2261962890625,2.370147705078125,2.998199462890625,1.0,1.0,1.0,1.0,1.0,92.95,0.0,2023-10-31 20:12:44.181
1.340934,0.7014927,0.7270008,1.5110486,1.3825183,0.53234035,0.5743035,1.2164468,1.005801,0.19911501,0.5822286,1.2748469,0.26410243,0.17828652,0.4441837,0.6249771,0.020721711,0.03890645,0.33288267,0.20114566,880.0,859.0476,833.2601,919.4872,865.09155,0.02557373046875,0.12017822265625,0.99053955078125,0.3887939453125,2.699127197265625,4.358978271484375,1.0,1.0,1.0,1.0,1.0,92.95,0.0,2023-10-31 20:12:45.187
0.64268833,0.066219896,0.15893687,1.44273,0.75754064,0.18563192,0.30063295,1.3418599,0.5042113,0.2454778,0.40291932,1.3460677,0.20623904,0.18867084,0.5824503,0.6863789,0.1662945,0.087591395,0.36684954,0.31609768,827.2161,849.3773,868.71796,795.78754,788.1319,0.01800537109375,0.114990234375,0.98968505859375,0.814971923828125,2.220611572265625,3.970184326171875,1.0,1.0,1.0,1.0,1.0,92.95,0.0,2023-10-31 20:12:46.189
0.9629751,0.19020456,0.10988889,1.3715339,0.7707997,0.28334934,0.14041626,1.4176928,0.82621324,0.10647997,0.43645045,1.2166793,0.1950796,0.114163086,0.4815398,0.60663575,0.14985047,0.14571494,0.38092062,0.30844688,780.4762,855.42126,827.2161,740.58606,806.26373,0.01544189453125,0.107177734375,0.9923095703125,0.949554443359375,3.12530517578125,4.104766845703125,1.0,1.0,1.0,1.0,1.0,92.95,0.0,2023-10-31 20:12:47.203
1.5670806,0.25974485,0.37226903,1.2177508,1.1089507,0.16340661,0.16537306,1.0721279,0.86013323,0.08659749,0.47558972,1.0950419,0.3656486,0.36213833,0.47489837,0.37127644,0.10255864,0.25165486,0.44375068,0.16716185,838.0952,853.00366,851.79486,837.6923,819.15753,0.01544189453125,0.11883544921875,0.99530029296875,0.396270751953125,2.91595458984375,4.508514404296875,1.0,1.0,1.0,1.0,1.0,92.95,0.0,2023-10-31 20:12:48.206
1.0965686,0.40526745,0.6345101,1.2177508,0.71603155,0.15886208,0.31393558,1.0721279,0.91235054,0.25702992,0.5088165,1.0950419,0.23096307,0.27531305,0.49869263,0.37127644,0.15527189,0.27303392,0.4335078,0.16716185,783.2967,846.1539,861.8681,733.73627,805.4579,0.01715087890625,0.11016845703125,0.99139404296875,1.8841552734375,2.310333251953125,3.611297607421875,1.0,1.0,1.0,1.0,1.0,92.95,0.0,2023-10-31 20:12:49.211
1.0940166,0.112102754,0.28308615,1.3666096,0.55394304,0.0014896138,0.101933844,1.5339911,0.88706636,0.3234217,0.48560646,1.6570244,0.29775286,0.22111137,0.4663268,0.77948254,0.2512875,0.1977002,0.4187107,0.4694325,728.0952,818.7546,886.8498,694.65204,815.12823,0.00933837890625,0.1092529296875,0.989013671875,0.949554443359375,2.699127197265625,3.828125,1.0,1.0,1.0,1.0,1.0,92.95,0.0,2023-10-31 20:12:50.215
0.89720213,0.593155,0.40453526,1.3463013,0.46106175,0.46762156,0.15417895,1.3674446,0.65953046,0.5479158,0.5010003,1.3958242,0.2341271,0.2787702,0.39917657,0.7519014,0.11922476,0.24768853,0.41755372,0.49408248,781.28204,854.21246,876.3736,684.57874,796.99634,0.01007080078125,0.10882568359375,0.99627685546875,0.142059326171875,3.013153076171875,4.448699951171875,1.0,1.0,1.0,1.0,1.0,92.95,0.0,2023-10-31 20:12:51.219
0.9006712,0.43633756,0.2784308,0.831115,0.60363656,0.16883978,0.09033156,0.9581668,0.8836313,0.4867834,0.37570903,1.2885965,0.20995785,0.41623473,0.68592244,0.6358967,0.10398184,0.23010902,0.47089437,0.29069674,764.35895,851.79486,852.6007,696.6667,848.5714,0.010498046875,0.116943359375,0.9937744140625,0.844879150390625,2.250518798828125,3.887939453125,1.0,1.0,1.0,1.0,1.0,92.92,0.0,2023-10-31 20:12:52.220
0.95367736,0.29963702,0.17499886,0.831115,0.5965612,0.0888271,0.07900321,0.9581668,1.0062767,0.00070969015,0.23132318,1.2885965,0.22709408,0.3898037,0.6915083,0.6358967,0.10262142,0.26986948,0.5257678,0.29069674,811.9048,853.00366,850.58606,722.0513,838.9011,0.00860595703125,0.1151123046875,0.9921875,0.97198486328125,2.220611572265625,3.596343994140625,1.0,1.0,1.0,1.0,1.0,92.92,0.0,2023-10-31 20:12:53.222
0.15124719,0.081038296,0.18085341,1.24391,0.61010444,0.11874497,0.18391566,1.4286526,1.091593,0.019742467,0.29580107,1.4495223,0.13808227,0.3317096,0.6443118,0.6325237,0.21588014,0.18949865,0.51153755,0.16365622,796.99634,855.82416,857.03296,728.0952,789.7436,0.01654052734375,0.11285400390625,0.99261474609375,1.143951416015625,2.758941650390625,3.940277099609375,1.0,1.0,1.0,1.0,1.0,92.92,0.0,2023-10-31 20:12:54.227
0.19277501,0.3972457,0.2525665,1.11124,0.58812344,0.34485957,0.012794534,1.3485497,0.9896011,0.05051382,0.29050118,1.4109572,0.067031525,0.23404053,0.65627545,0.6949678,0.21967043,0.16339539,0.6036658,0.24338575,830.84247,843.3333,852.6007,797.3993,833.663,0.0177001953125,0.1190185546875,0.9925537109375,0.46356201171875,2.758941650390625,4.149627685546875,1.0,1.0,1.0,1.0,1.0,92.92,0.0,2023-10-31 20:12:55.228
0.4235322,0.5736777,0.17578515,0.94704753,0.59518147,0.48519117,0.104109064,1.0333813,0.39471424,0.06204175,0.1629222,1.0484974,0.2386732,0.23627114,0.6853152,0.6590745,0.2570441,0.29243737,0.5414343,0.083629034,839.707,860.2564,855.42126,774.43225,857.8388,0.01837158203125,0.11737060546875,0.99176025390625,0.55328369140625,2.3028564453125,3.93280029296875,1.0,1.0,1.0,1.0,1.0,92.92,0.0,2023-10-31 20:12:56.230
1.0098348,0.25914532,0.21215382,1.2485017,1.1795676,0.2088867,0.10721283,1.4060377,1.2850326,0.04263133,0.09193022,1.4150814,0.19441366,0.3388744,0.5591176,0.726285,0.23998316,0.17667666,0.52678907,0.24939129,810.696,852.6007,861.8681,757.50916,837.28937,0.02301025390625,0.1142578125,0.9913330078125,1.173858642578125,3.312225341796875,3.63372802734375,1.0,1.0,1.0,1.0,1.0,92.92,0.0,2023-10-31 20:12:57.236
0.8327493,0.11077845,0.18848935,1.2988845,0.9840073,0.33423403,0.0023729403,1.485649,1.1366361,0.10810204,0.530761,1.4988014,0.30864233,0.28351733,0.6718799,0.81431806,0.10644937,0.18147874,0.54126376,0.36320576,863.47986,850.18317,861.4652,887.25275,824.3956,0.01971435546875,0.111572265625,0.98992919921875,0.2691650390625,3.372039794921875,4.299163818359375,1.0,1.0,1.0,1.0,1.0,92.92,0.0,2023-10-31 20:12:58.238
0.6114622,0.27665153,0.1410626,1.2213328,0.707232,0.6141495,0.23693141,1.2901276,1.1224926,0.3884739,0.4829927,1.3113581,0.33440924,0.2711428,0.818646,0.7660805,0.15443419,0.33414468,0.50496227,0.37882054,868.315,851.39197,843.3333,955.34796,894.90845,0.01824951171875,0.11016845703125,0.99334716796875,0.64300537109375,2.594451904296875,3.3795166015625,1.0,1.0,1.0,1.0,1.0,92.92,0.0,2023-10-31 20:12:59.244
0.68180007,0.37008283,0.08706209,1.3191198,0.27845964,0.25358477,0.3708501,1.4624792,0.38083595,0.2079778,0.25395343,1.540599,0.16560148,0.26410687,0.6704966,0.57892656,0.39266965,0.29275844,0.64417475,0.23700617,898.93774,859.85345,855.42126,940.4396,888.86444,0.01788330078125,0.11419677734375,0.99078369140625,0.6280517578125,2.27294921875,4.119720458984375,1.0,1.0,1.0,1.0,1.0,92.92,0.0,2023-10-31 20:13:00.252
0.7588833,0.52990264,0.017544877,1.1758152,1.0029619,0.21078403,0.20933257,1.2260332,1.2350024,0.17960343,0.36241782,1.3918214,0.32202035,0.17927006,0.56266814,0.72343576,0.029159805,0.27113256,0.5479513,0.36621314,888.46155,850.58606,865.89746,935.6044,872.74725,0.02484130859375,0.11138916015625,0.98956298828125,0.441131591796875,4.26177978515625,3.745880126953125,1.0,1.0,1.0,1.0,1.0,92.92,0.0,2023-10-31 20:13:01.252
1.4884008,0.12633023,0.16489968,1.8612754,1.3662461,0.035686605,0.3744314,1.6015586,1.460348,0.10057048,0.5691586,1.6385478,0.3559737,0.22268341,0.66078967,0.84460247,0.0033872018,0.33181104,0.5448675,0.36554882,909.81683,860.65936,861.8681,1050.4396,904.9817,0.025390625,0.1143798828125,0.9873046875,0.7177734375,2.788848876953125,3.985137939453125,1.0,1.0,1.0,1.0,1.0,92.89,0.0,2023-10-31 20:13:02.252
1.1262183,0.3063486,0.24152027,1.1523244,0.99351877,0.021328578,0.21987952,1.4474697,1.0299351,0.19224654,0.2497657,1.5963092,0.4152162,0.09023947,0.60874736,0.5392306,0.13839063,0.25342646,0.46022338,0.2992046,845.34796,864.68866,840.5128,918.2784,917.8755,0.01995849609375,0.1207275390625,0.990966796875,1.248626708984375,3.132781982421875,3.461761474609375,1.0,1.0,1.0,1.0,1.0,92.89,0.0,2023-10-31 20:13:03.254
1.4074256,0.11650546,0.49402088,1.4578668,1.5103912,0.02066389,0.26141295,1.5684466,1.6375569,0.15438521,0.53283626,1.6423467,0.31982774,0.20338085,0.66236675,0.5689177,0.21519156,0.24395342,0.47633904,0.37264317,880.0,846.55676,853.00366,986.77655,873.95605,0.02288818359375,0.1163330078125,0.9910888671875,1.727142333984375,3.1103515625,3.78326416015625,1.0,1.0,1.0,1.0,1.0,92.89,0.0,2023-10-31 20:13:04.260
1.5409021,0.38595045,0.49170104,1.4650397,1.3782778,0.004617036,0.19937025,1.4743696,1.5625141,0.13978022,0.5583872,1.3450919,0.2056864,0.21552032,0.6891734,0.743823,0.26384386,0.051277917,0.45348382,0.5314731,897.72894,855.42126,851.39197,981.53845,880.80585,0.022216796875,0.1307373046875,0.98809814453125,0.897216796875,3.372039794921875,4.269256591796875,1.0,1.0,1.0,1.0,1.0,92.89,0.0,2023-10-31 20:13:05.260
0.8093938,0.06060914,0.47752717,1.5078259,0.7987041,0.44090205,0.20359337,1.3115416,1.1658854,0.12535469,0.3321412,1.1390735,0.15041128,0.28150108,0.68148535,0.7096446,0.19175619,0.01578913,0.55086476,0.48711473,936.4103,864.68866,844.1392,1014.17584,923.1135,0.033203125,0.124755859375,0.98846435546875,1.07666015625,3.132781982421875,5.301055908203125,1.0,1.0,1.0,1.0,1.0,92.89,0.0,2023-10-31 20:13:06.262
0.68509847,0.67320436,0.22446081,1.1243067,0.76442134,0.366188,0.19248617,1.2987796,1.2501855,0.002636036,0.32908866,1.2099749,0.19187386,0.16415031,0.6281147,0.6711197,0.11827307,0.17950512,0.48804834,0.46069437,876.77655,861.8681,859.85345,916.6667,886.8498,0.0322265625,0.1229248046875,0.9927978515625,0.76263427734375,2.250518798828125,4.284210205078125,1.0,1.0,1.0,1.0,1.0,92.89,0.0,2023-10-31 20:13:07.269
1.1941383,0.63358265,0.16441166,1.3636322,0.9188174,0.38020223,0.00850248,1.2652842,1.225919,0.21350896,0.4589357,1.4107335,0.27786252,0.16791186,0.6037435,0.63671964,0.020756572,0.18909465,0.4033246,0.36470723,902.5641,862.674,850.989,940.4396,851.79486,0.0445556640625,0.1231689453125,0.9884033203125,0.3289794921875,3.27484130859375,4.942169189453125,1.0,1.0,1.0,1.0,1.0,92.89,0.0,2023-10-31 20:13:08.270
1.3035549,0.49576238,0.4196274,1.4920721,1.0363065,0.5576483,0.25188535,1.5759286,1.1841717,0.27209464,0.5266529,1.5344431,0.46149588,0.15799345,0.594993,0.82345796,0.02164496,0.09324271,0.42132503,0.3713174,947.28937,857.4359,832.4542,1048.4249,890.87915,0.037109375,0.1260986328125,0.9888916015625,0.934600830078125,1.517791748046875,3.162689208984375,1.0,1.0,1.0,1.0,1.0,92.89,0.0,2023-10-31 20:13:09.276
0.7123112,0.009501451,0.48398197,1.0857475,0.23470642,0.35885295,0.22611132,1.5297178,0.29942054,0.22907317,0.2641868,0.8584491,0.45456082,0.09321415,0.48807243,0.82183087,0.19551522,0.040560756,0.40078375,0.3673277,859.0476,845.34796,870.32965,858.6447,819.5604,0.04266357421875,0.12542724609375,0.9915771484375,0.904693603515625,3.39447021484375,3.985137939453125,1.0,1.0,1.0,1.0,1.0,92.89,0.0,2023-10-31 20:13:10.276
0.950148,0.25931326,0.006246163,0.971973,0.67989475,0.2517812,0.0057865144,1.042165,1.0336686,0.079885155,0.48808867,1.1106585,0.4120816,0.117761165,0.61094826,0.5237603,0.111436285,0.1328139,0.540784,0.27924564,880.0,860.65936,856.2271,926.337,894.5055,0.04656982421875,0.12506103515625,0.98785400390625,0.680389404296875,2.773895263671875,4.5159912109375,1.0,1.0,1.0,1.0,1.0,92.88,0.0,2023-10-31 20:13:11.278
0.53334886,0.43143722,0.43462428,1.2702341,0.6230958,0.44848576,0.23990355,1.106781,1.1889536,0.0010389338,0.46586186,1.4388243,0.20850295,0.37331936,0.68000555,0.6892249,0.08185221,0.053891953,0.5144414,0.26242092,873.95605,853.00366,850.989,938.4249,851.39197,0.05157470703125,0.123291015625,0.99139404296875,0.97198486328125,3.820648193359375,3.521575927734375,1.0,1.0,1.0,1.0,1.0,92.88,0.0,2023-10-31 20:13:12.284
1.1171067,0.096325375,0.45920816,1.4418782,0.8769016,0.32241362,0.119263195,1.3199583,1.1693501,0.16206752,0.35719755,1.4684224,0.2887502,0.36884385,0.58295625,0.8368275,0.20336963,0.016668905,0.41418496,0.40975982,797.8022,846.9597,861.8681,778.46155,792.96704,0.045166015625,0.12664794921875,0.98681640625,0.7177734375,2.572021484375,4.0374755859375,1.0,1.0,1.0,1.0,1.0,92.88,0.0,2023-10-31 20:13:13.286
1.0486203,0.14831524,0.38030902,1.332666,0.7672407,0.41486803,0.14757882,1.31445,0.9797869,0.15157865,0.30155405,1.2561971,0.23178102,0.2338635,0.68921834,0.7542629,0.17091803,0.037220564,0.49869087,0.42559236,828.8278,852.6007,848.5714,841.31866,811.9048,0.04791259765625,0.126708984375,0.9857177734375,0.306549072265625,3.87298583984375,4.366455078125,1.0,1.0,1.0,1.0,1.0,92.88,0.0,2023-10-31 20:13:14.292
0.40113685,0.03862898,0.4678297,1.1183321,0.3228895,0.18377301,0.29421303,1.4447701,0.85283804,0.04510637,0.40774688,1.1486726,0.20377418,0.3095839,0.6486587,0.69355494,0.19740175,0.07438104,0.31532097,0.4081357,786.52014,850.58606,859.45056,712.7839,807.8755,0.06036376953125,0.12615966796875,0.98687744140625,1.30096435546875,3.45428466796875,3.60382080078125,1.0,1.0,1.0,1.0,1.0,92.88,0.0,2023-10-31 20:13:15.294
0.58994764,0.012842564,0.43352193,1.0376122,0.6730398,0.3319753,0.19985008,1.0656483,0.80413103,0.17771904,0.35364273,1.210321,0.7379363,0.2606191,0.55678946,0.55349624,0.12407817,0.13563628,0.59199095,0.08915053,788.93774,842.9304,853.00366,721.2454,784.90845,0.059814453125,0.136962890625,0.98822021484375,0.575714111328125,2.833709716796875,3.81317138671875,1.0,1.0,1.0,1.0,1.0,92.88,0.0,2023-10-31 20:13:16.300
0.9884281,0.42295095,0.380402,1.0457337,1.0770843,0.5566361,0.47238928,1.152374,1.372867,0.11533993,0.22768204,1.3609173,0.48322552,0.22232728,0.58691466,0.6970521,0.08240243,0.031048328,0.64437485,0.11104497,777.6557,845.34796,855.42126,682.1612,809.4872,0.06146240234375,0.133056640625,0.9864501953125,0.55328369140625,2.25799560546875,4.0972900390625,1.0,1.0,1.0,1.0,1.0,92.88,0.0,2023-10-31 20:13:17.308
0.9698041,0.18889649,0.08002229,1.0732312,0.9535221,0.5289432,0.12777591,0.9298427,1.3455294,0.08004209,0.32950014,1.4519314,0.30163768,0.25727278,0.6679632,0.73792666,0.059210487,0.029453006,0.47916725,0.064621575,808.68134,823.1868,889.2674,751.4652,788.1319,0.0572509765625,0.1304931640625,0.9886474609375,1.15142822265625,3.192596435546875,4.18701171875,1.0,1.0,1.0,1.0,1.0,92.88,0.0,2023-10-31 20:13:18.308
1.0505072,0.75862664,0.5682106,1.3824512,1.0071154,0.51378065,0.23274793,0.9275636,0.8926718,0.15441248,0.4181129,1.3419976,0.2081831,0.17940252,0.5838576,0.7273164,0.18259843,0.0040604486,0.37585407,0.08745748,805.8608,852.1978,857.8388,710.3663,809.0842,0.0550537109375,0.126708984375,0.98968505859375,0.740203857421875,1.816864013671875,5.555267333984375,1.0,1.0,1.0,1.0,1.0,92.88,0.0,2023-10-31 20:13:19.308
1.0505072,0.43936548,0.48530355,1.7412452,1.0071154,0.2902533,0.16542308,1.6065679,0.8926718,0.25659207,0.4371512,1.7053819,0.2081831,0.16547294,0.367126,0.8016802,0.18259843,0.11171812,0.52935,0.46239564,815.9341,838.9011,872.74725,692.23444,799.011,0.09295654296875,0.126953125,0.98699951171875,0.321502685546875,0.83740234375,3.865509033203125,1.0,1.0,1.0,1.0,1.0,92.88,0.0,2023-10-31 20:13:20.308
1.2585312,0.5136232,0.31424472,1.9121915,0.9857003,0.3715797,0.10012136,1.6903391,1.1117066,0.103546716,0.43874484,1.7022837,0.34824806,0.18054008,0.40022063,0.8789792,0.06910604,0.16736066,0.34813818,0.52073735,801.8315,851.39197,866.30035,704.7253,841.31866,0.09033203125,0.136962890625,0.9853515625,0.710296630859375,2.564544677734375,4.224395751953125,1.0,1.0,1.0,1.0,1.0,92.84,0.0,2023-10-31 20:13:21.312
1.2077763,0.40271193,0.48456132,1.0346355,0.8033904,0.24661571,0.21815199,1.0602784,0.7344067,0.05415702,0.39680272,1.0689362,0.30754247,0.22485754,0.52563816,0.8392466,0.023046423,0.1432736,0.44180158,0.65874517,849.7802,852.6007,862.674,839.707,849.3773,0.07330322265625,0.12481689453125,0.98150634765625,1.009368896484375,0.1495361328125,4.044952392578125,1.0,1.0,1.0,1.0,1.0,92.84,0.0,2023-10-31 20:13:22.316
1.3770117,0.33287436,0.03142183,1.050236,0.8288566,0.20784484,0.06512392,1.1160023,0.7814411,0.06521552,0.32169142,1.1682651,0.34458405,0.22314806,0.5326531,0.8627164,0.052190706,0.045790385,0.5415706,0.67636955,826.4103,856.2271,837.6923,811.9048,838.0952,0.08197021484375,0.15203857421875,0.98077392578125,1.24114990234375,1.48040771484375,3.940277099609375,1.0,1.0,1.0,1.0,1.0,92.84,0.0,2023-10-31 20:13:23.318
1.507657,0.43779248,0.34907058,1.0583442,0.8331662,0.22021456,0.2319696,1.1309832,0.7677398,0.051234484,0.2687264,1.1473399,0.35041627,0.30906543,0.6193361,0.8739986,0.10021135,0.04281828,0.5738947,0.6840701,803.44324,843.73627,850.989,795.38464,847.3626,0.1109619140625,0.13616943359375,0.96087646484375,0.755157470703125,3.78326416015625,3.162689208984375,1.0,1.0,1.0,1.0,1.0,92.84,0.0,2023-10-31 20:13:24.324
1.507657,0.27611655,0.36254826,1.0583442,0.8331662,0.29043967,0.431827,1.1309832,0.7677398,0.047211286,0.3043079,1.1473399,0.35041627,0.23903812,0.67883027,0.8739986,0.10021135,0.021456163,0.5335426,0.6840701,853.00366,852.6007,853.00366,853.8095,910.6227,0.06024169921875,0.15142822265625,0.99005126953125,1.592559814453125,1.8841552734375,4.942169189453125,1.0,2.0,1.0,1.0,2.0,92.84,0.0,2023-10-31 20:13:25.325
1.507657,0.23166598,0.10211443,1.0583442,0.8331662,0.44718412,0.096383855,1.1309832,0.7677398,0.010017543,0.33771762,1.1473399,0.35041627,0.16758828,0.45293534,0.8739986,0.10021135,0.16538462,0.35563183,0.6840701,884.43225,853.4066,851.79486,880.80585,875.16486,0.061279296875,0.1527099609375,0.9915771484375,1.428070068359375,2.654266357421875,8.8226318359375,1.0,2.0,1.0,1.0,2.0,92.84,0.0,2023-10-31 20:13:26.326
1.507657,0.29347154,0.1381589,1.0583442,0.8331662,0.21883819,0.075442456,1.1309832,0.7677398,0.17652483,0.2704597,1.1473399,0.35041627,0.042025596,0.37516752,0.8739986,0.10021135,0.28894717,0.24649543,0.6840701,816.337,850.58606,867.50916,911.4286,832.8571,0.052001953125,0.14849853515625,0.97723388671875,0.934600830078125,1.667327880859375,4.658050537109375,1.0,2.0,1.0,1.0,2.0,92.84,0.0,2023-10-31 20:13:27.332
1.2794636,0.32281017,0.09104584,1.0583442,0.6653342,0.2778898,0.16420014,1.1309832,0.81262636,0.07228688,0.18442468,1.1473399,0.38877508,0.08433926,0.5700636,0.8739986,0.014881801,0.17990167,0.36331335,0.6840701,906.1905,859.85345,865.4945,973.8828,878.3883,0.0626220703125,0.1650390625,0.98236083984375,1.158905029296875,1.6448974609375,3.895416259765625,1.0,1.0,1.0,1.0,2.0,92.84,0.0,2023-10-31 20:13:28.333
1.5186433,0.11710299,0.028282892,1.0583442,1.1751857,0.10185171,0.076397926,1.1309832,1.0727856,0.34615403,0.25660926,1.1473399,0.5262186,0.1859489,0.624896,0.8739986,0.2803294,0.09601233,0.5124895,0.6840701,856.63007,849.7802,835.6777,975.09155,921.50183,0.0753173828125,0.15521240234375,0.9866943359375,2.489776611328125,2.429962158203125,0.216827392578125,1.0,1.0,1.0,1.0,1.0,92.84,0.0,2023-10-31 20:13:29.334
1.6139486,0.13408765,0.32842845,1.8208879,1.3935921,0.110646315,0.018001292,1.9875237,1.0630766,0.36908168,0.47198564,1.6563739,0.62661225,0.13972688,0.5397263,1.1452779,0.29616573,0.05038106,0.49574125,1.1468437,903.7729,857.4359,827.619,986.3736,916.6667,0.0640869140625,0.1502685546875,0.980224609375,1.742095947265625,3.46923828125,4.658050537109375,1.0,1.0,1.0,1.0,1.0,92.84,0.0,2023-10-31 20:13:30.342
1.0919514,0.17719786,0.39415178,1.2726743,0.8699139,0.22912547,0.054847155,0.93060035,0.6104838,0.03578977,0.48069936,0.7534261,0.47219118,0.11900245,0.6026567,1.1076009,0.2904698,0.109316885,0.4721495,0.98457044,919.0842,855.42126,851.79486,998.46155,896.1172,0.05987548828125,0.15948486328125,0.98345947265625,0.710296630859375,1.846771240234375,3.072967529296875,1.0,1.0,1.0,1.0,1.0,92.81,0.0,2023-10-31 20:13:31.348
1.3107157,0.16428687,0.392394,1.3246592,1.1493582,0.20980184,0.047972865,1.2028741,0.78408355,0.061677378,0.18658705,1.2381492,0.5138706,0.14245076,0.54984707,1.1320503,0.34149563,0.03050382,0.45930701,0.9771464,902.5641,838.49817,884.0293,1031.0989,917.8755,0.06207275390625,0.15191650390625,0.97894287109375,1.846771240234375,3.03558349609375,6.57958984375,1.0,1.0,1.0,1.0,1.0,92.81,0.0,2023-10-31 20:13:32.356
1.0186824,0.6023764,0.27846634,1.4585596,0.773622,0.14725804,0.08388314,1.3714854,1.124708,0.06368872,0.0035065264,1.2381492,0.5404234,0.16796538,0.4526258,1.1684467,0.41118848,0.088719726,0.35059482,0.9400548,907.3993,861.8681,840.5128,950.5128,884.0293,0.0440673828125,0.15460205078125,0.98516845703125,1.07666015625,3.69354248046875,3.043060302734375,1.0,1.0,1.0,1.0,1.0,92.81,0.0,2023-10-31 20:13:33.357
1.2368535,0.86587507,0.4856964,1.4585596,0.89324486,0.2729805,0.00698089,1.3714854,1.1220165,0.1546834,0.030826932,1.2381492,0.49874854,0.14284717,0.2963815,1.1684467,0.415161,0.13536258,0.30259722,0.9400548,853.4066,858.24176,846.55676,842.1245,832.0513,0.04541015625,0.14788818359375,0.98809814453125,1.3458251953125,1.92901611328125,4.164581298828125,1.0,1.0,1.0,1.0,1.0,92.81,0.0,2023-10-31 20:13:34.357
0.84705955,0.33580348,0.17001365,1.3546631,0.41747063,0.0022422846,0.07024698,1.5967479,0.9338737,0.11063053,0.34599033,1.3780266,0.4710946,0.1439883,0.43592298,1.0166472,0.39511576,0.095919,0.4563589,0.9385156,858.6447,853.8095,838.9011,873.95605,836.8865,0.04425048828125,0.15069580078125,0.984619140625,0.67291259765625,1.861724853515625,3.9776611328125,1.0,1.0,1.0,1.0,1.0,92.81,0.0,2023-10-31 20:13:35.359
0.8773354,0.08366905,0.26274234,1.4561763,0.38718474,0.07821168,0.30121544,1.6693848,0.69446534,0.15416801,0.49854034,1.4589765,0.4749456,0.21657528,0.62992185,0.9548336,0.36812103,0.20510422,0.5559313,0.8844896,872.3443,861.06226,853.8095,896.1172,861.06226,0.0394287109375,0.15509033203125,0.98358154296875,0.7476806640625,3.27484130859375,4.20196533203125,1.0,1.0,1.0,1.0,1.0,92.81,0.0,2023-10-31 20:13:36.364
1.0412909,0.12666729,0.29518035,1.1227052,0.7186398,0.22906749,0.34161934,1.2154695,0.5941359,0.08402183,0.018950325,1.4420675,0.5096388,0.2925998,0.5941669,0.9354589,0.34394956,0.30088148,0.4272424,0.7830939,806.26373,854.21246,853.00366,753.8828,768.3883,0.0438232421875,0.15325927734375,0.9876708984375,1.09161376953125,3.66363525390625,4.059906005859375,1.0,1.0,1.0,1.0,1.0,92.81,0.0,2023-10-31 20:13:37.364
0.4725435,0.116082184,0.7207546,0.87349206,0.36920908,0.2926971,0.5312039,1.0081053,0.3994561,0.14476766,0.2114084,1.4165461,0.69287723,0.2417614,0.5498142,0.87779945,0.45292088,0.04417227,0.434192,0.8570645,808.2784,849.3773,853.4066,777.25275,796.5934,0.0440673828125,0.15521240234375,0.9852294921875,0.9869384765625,2.40753173828125,3.910369873046875,1.0,1.0,1.0,1.0,1.0,92.81,0.0,2023-10-31 20:13:38.367
0.40305004,0.7190603,0.2585347,0.98357725,0.35868585,0.66059655,0.53261757,0.82172537,0.711427,0.318424,0.059626766,0.90604174,0.6406594,0.23790923,0.5780811,0.8546385,0.37939638,0.0204522,0.50026286,0.8166084,824.3956,855.0183,859.85345,788.93774,821.5751,0.0418701171875,0.1580810546875,0.98394775390625,0.538330078125,3.15521240234375,3.626251220703125,1.0,1.0,1.0,1.0,1.0,92.81,0.0,2023-10-31 20:13:39.372
0.86629015,0.21465655,0.21266979,0.7898511,0.6358671,0.72614855,0.11670275,0.89753944,0.654814,0.072721064,0.098757155,1.1284182,0.5923514,0.25378177,0.39206034,0.7789757,0.3529455,0.05659304,0.41652456,0.775781,772.8205,850.18317,852.6007,685.78754,826.4103,0.04705810546875,0.1595458984375,0.98651123046875,1.054229736328125,2.026214599609375,3.237457275390625,1.0,1.0,1.0,1.0,1.0,92.81,0.0,2023-10-31 20:13:40.372
1.1507803,0.1302482,0.110556476,1.3952558,0.75978744,0.505421,0.065574415,1.104862,0.2404609,0.020925827,0.035602536,1.4013745,0.5060572,0.15361492,0.5726619,0.9588824,0.35995921,0.167905,0.5088275,0.78774685,784.10254,846.55676,874.35895,716.0073,772.01465,0.04815673828125,0.15631103515625,0.97955322265625,0.657958984375,2.684173583984375,4.029998779296875,1.0,1.0,1.0,1.0,1.0,92.78,0.0,2023-10-31 20:13:41.372
0.7650088,0.18355048,0.44886252,0.7469138,0.0003178653,0.55993754,0.75091594,0.87747407,0.8542554,0.14654188,0.11426111,1.2657226,0.64422446,0.18879285,0.5993157,1.0448298,0.5416323,0.09120776,0.5847419,0.89143294,792.1612,853.00366,862.27106,721.2454,797.3993,0.04833984375,0.1572265625,0.98516845703125,0.814971923828125,2.6318359375,4.53094482421875,1.0,1.0,1.0,1.0,1.0,92.78,0.0,2023-10-31 20:13:42.372
0.5370982,0.21704778,0.22742768,0.18916425,0.2919981,0.58889526,0.7149252,0.7880621,0.9498194,0.05831826,0.34363982,1.0397892,0.5804618,0.14441383,0.61921537,0.9238707,0.47169998,0.075341724,0.515637,0.8382005,792.96704,853.4066,855.0183,738.97437,826.4103,0.0467529296875,0.1622314453125,0.983154296875,0.605621337890625,2.16827392578125,3.70849609375,1.0,1.0,1.0,1.0,1.0,92.78,0.0,2023-10-31 20:13:43.375
0.37861425,0.8060886,0.22641085,0.45428985,0.34675068,0.19775829,0.37866595,1.068533,0.33012486,0.2137379,0.025719311,0.90537125,0.697292,0.23762584,0.6890924,0.8785837,0.5228893,0.079300456,0.63558024,0.8789467,796.99634,852.6007,865.09155,716.4103,801.4286,0.0509033203125,0.15643310546875,0.98248291015625,1.1962890625,2.579498291015625,2.878570556640625,1.0,1.0,1.0,1.0,1.0,92.78,0.0,2023-10-31 20:13:44.380
0.7871443,0.3908307,0.42495862,1.4448069,0.6975993,0.27202204,0.005026152,1.2443393,0.9906573,0.39571294,0.34466472,1.1435136,0.6809012,0.19466265,0.6514823,0.8256908,0.5651486,0.024592211,0.521565,0.64892405,832.8571,855.82416,856.2271,834.0659,848.97437,0.04681396484375,0.1556396484375,0.982177734375,1.009368896484375,2.489776611328125,3.63372802734375,1.0,1.0,1.0,1.0,1.0,92.78,0.0,2023-10-31 20:13:45.382
0.8999314,0.07156411,0.46615985,1.5368524,0.6859325,0.13936508,0.19416043,1.1788076,0.990635,0.34264258,0.4457228,1.2043885,0.6396823,0.1389612,0.4317414,0.8603548,0.5776567,0.1700709,0.28228337,0.73480695,822.7839,853.00366,859.85345,794.9817,853.4066,0.047607421875,0.16070556640625,0.984619140625,0.575714111328125,2.295379638671875,3.835601806640625,1.0,1.0,1.0,1.0,1.0,92.78,0.0,2023-10-31 20:13:46.388
1.1009041,0.045057405,0.22972116,1.5349768,0.6992407,0.37197614,0.08070577,1.0863094,0.8243669,0.20482455,0.2977295,1.1209047,0.51414895,0.21271273,0.63263565,0.8866376,0.61049694,0.14802355,0.43076667,0.7249189,821.5751,842.9304,846.9597,787.72894,855.0183,0.05255126953125,0.15765380859375,0.9781494140625,1.069183349609375,3.0206298828125,3.835601806640625,1.0,1.0,1.0,1.0,1.0,92.78,0.0,2023-10-31 20:13:47.391
0.92775553,0.3725802,0.4115455,1.1660509,0.76825815,0.45062158,0.14947534,1.0936472,0.9162233,0.065955244,0.23652115,1.1527585,0.59739894,0.246564,0.68844914,0.88008606,0.42479742,0.17648536,0.5278826,0.702793,874.7619,858.6447,832.8571,892.49084,860.2564,0.052001953125,0.15533447265625,0.9830322265625,0.8673095703125,2.773895263671875,4.50103759765625,1.0,1.0,1.0,1.0,1.0,92.78,0.0,2023-10-31 20:13:48.396
0.88685113,0.3640561,0.39610755,0.9919447,0.82035094,0.2606265,0.2230398,1.142399,1.1565678,0.21897607,0.27316922,1.2677878,0.57141805,0.24546638,0.7121081,0.9118211,0.471572,0.14197916,0.6209245,0.73875076,914.2491,857.03296,846.9597,974.68866,880.80585,0.0477294921875,0.163330078125,0.9805908203125,0.351409912109375,2.76641845703125,4.5458984375,1.0,1.0,1.0,1.0,1.0,92.78,0.0,2023-10-31 20:13:49.404
0.8123088,0.5146045,0.44344985,1.0446403,0.64511096,0.2518895,0.34632698,1.0450243,1.1046215,0.20497642,0.3790838,1.2407475,0.5608036,0.19562528,0.6155781,0.9082536,0.45864725,0.14811768,0.5539916,0.7059524,912.6374,855.82416,857.03296,995.2381,916.6667,0.056640625,0.16455078125,0.9771728515625,1.173858642578125,4.41131591796875,3.237457275390625,1.0,1.0,1.0,1.0,1.0,92.78,0.0,2023-10-31 20:13:50.407
0.678332,0.43494472,0.01128065,1.4992771,0.38240117,0.10850749,0.25421116,1.1469479,0.53830224,0.31834388,0.39896092,1.2157812,0.48366207,0.26881588,0.6198882,0.7661795,0.4272445,0.1482461,0.39197093,0.5535235,871.53845,855.0183,833.663,985.56775,979.12085,0.06732177734375,0.09771728515625,0.98779296875,4.538421630859375,3.701019287109375,2.265472412109375,1.0,1.0,1.0,1.0,1.0,92.77,0.0,2023-10-31 20:13:51.412
1.6304257,0.36706266,0.6002365,1.4992771,1.1823479,0.3781206,0.2790679,1.1469479,0.9797358,0.61704093,0.71254873,1.2157812,0.31693605,0.22101825,0.60296184,0.7661795,0.016078187,0.23237017,0.43465036,0.5535235,884.43225,858.24176,854.61536,961.79486,865.09155,0.02691650390625,0.0869140625,0.9915771484375,0.0,3.09539794921875,2.549591064453125,1.0,1.0,1.0,1.0,1.0,92.77,0.0,2023-10-31 20:13:52.413
1.060731,0.29651067,0.5918553,1.4992771,0.9016947,0.33853027,0.18631473,1.1469479,0.72534055,0.5711564,0.7003445,1.2157812,0.44408956,0.10580319,0.6505927,0.7661795,0.18548687,0.1936338,0.47616568,0.5535235,910.2198,853.00366,835.2747,993.6264,867.50916,0.0228271484375,0.0889892578125,0.9935302734375,1.786956787109375,1.06170654296875,3.0804443359375,1.0,1.0,1.0,1.0,1.0,92.77,0.0,2023-10-31 20:13:53.415
1.0175611,0.16253214,0.13266659,1.4992771,0.75894666,0.31258836,0.38662368,1.1469479,0.71712244,0.26876882,0.34631407,1.2157812,0.3762767,0.19814494,0.5101231,0.7661795,0.14946957,0.072708786,0.49550775,0.5535235,872.3443,862.674,845.34796,875.56775,857.8388,0.043701171875,0.1025390625,0.9969482421875,1.375732421875,4.299163818359375,3.39447021484375,1.0,1.0,1.0,1.0,1.0,92.77,0.0,2023-10-31 20:13:54.420
1.6801689,0.24282667,0.14652799,1.4992771,1.1947508,0.314032,0.19653139,1.1469479,1.4620525,0.34813023,0.59555835,1.2157812,0.58682483,0.33836067,0.5436234,0.7661795,0.17002642,0.087221585,0.2610315,0.5535235,882.8205,850.989,839.304,928.7546,893.2967,0.02862548828125,0.10711669921875,0.99249267578125,0.8074951171875,3.22998046875,4.074859619140625,1.0,1.0,1.0,1.0,1.0,92.77,0.0,2023-10-31 20:13:55.422
1.2072382,0.12906848,0.19279651,1.4992771,0.7833237,0.2802766,0.20154744,1.1469479,1.4166774,0.10101573,0.44260007,1.2157812,0.4248632,0.24784665,0.63746554,0.7661795,0.02306911,0.12985303,0.3121969,0.5535235,815.12823,847.76556,864.2857,783.2967,805.05493,0.0279541015625,0.10443115234375,0.99127197265625,0.97198486328125,3.102874755859375,2.5421142578125,1.0,1.0,1.0,1.0,1.0,92.77,0.0,2023-10-31 20:13:56.423
0.8391178,0.3384783,0.32761294,1.8217211,0.52382916,0.42875507,0.24720117,1.6865183,0.6203709,0.11677925,0.33915266,1.3965871,0.4300216,0.19861239,0.55921626,0.86926943,0.068576284,0.30824444,0.43097004,0.3434162,834.87177,852.1978,855.82416,796.5934,800.2198,0.0230712890625,0.11199951171875,0.99383544921875,0.216827392578125,2.041168212890625,6.123504638671875,1.0,1.0,1.0,1.0,1.0,92.77,0.0,2023-10-31 20:13:57.431
1.2472415,0.07943172,0.31955367,1.6220679,0.77395993,0.27600005,0.25971967,1.5330873,1.0902613,0.06297825,0.32919073,1.1767143,0.20852198,0.2425741,0.587984,0.8308528,0.077388786,0.15724206,0.5307808,0.43212625,826.8132,851.79486,861.8681,801.02563,788.93774,0.02947998046875,0.11968994140625,0.99224853515625,1.016845703125,2.743988037109375,3.75335693359375,1.0,1.0,1.0,1.0,1.0,92.77,0.0,2023-10-31 20:13:58.436
0.95504075,0.072702914,0.118613765,1.2922693,0.75461143,0.16682516,0.04936142,0.9140626,1.0684487,0.15088393,0.41208667,1.1350002,0.29227164,0.23880473,0.6256694,0.67395675,0.0038292198,0.26656762,0.60285145,0.3378673,782.0879,849.7802,854.61536,697.0696,798.20514,0.03424072265625,0.1104736328125,0.988525390625,1.368255615234375,1.846771240234375,4.433746337890625,1.0,1.0,1.0,1.0,1.0,92.77,0.0,2023-10-31 20:13:59.439
0.8129507,0.35364217,0.08873906,1.1366626,0.85139525,0.0023774488,0.0646273,1.210774,1.1180587,0.31821716,0.23546799,1.2012745,0.36628047,0.28128123,0.6056268,0.43237314,0.076025076,0.38122517,0.65751266,0.18278916,791.75824,853.4066,854.21246,711.978,799.011,0.0260009765625,0.10968017578125,0.9891357421875,1.233673095703125,2.37762451171875,3.72344970703125,1.0,1.0,1.0,1.0,1.0,92.77,0.0,2023-10-31 20:14:00.439
0.7994756,0.13819027,0.12346879,1.2045624,0.5644047,0.02038515,0.14374551,1.1026028,0.8190262,0.20338224,0.14098372,0.9054062,0.2459615,0.32058963,0.58970666,0.47703356,0.32598087,0.14890146,0.67786986,0.14284723,777.25275,840.5128,856.2271,701.0989,817.1429,0.02667236328125,0.117919921875,0.9881591796875,1.1663818359375,3.09539794921875,4.0972900390625,1.0,1.0,1.0,1.0,1.0,92.73,0.0,2023-10-31 20:14:01.445
1.2241604,0.027804572,0.259994,1.1624385,0.78407425,0.25945282,0.16115613,1.0564133,0.927426,0.18953723,0.023534652,1.1712726,0.26550734,0.38481686,0.7498316,0.7535655,0.0889753,0.012243193,0.50238365,0.32088032,792.5641,848.97437,868.71796,691.8315,806.26373,0.0323486328125,0.1162109375,0.991943359375,0.889739990234375,3.3197021484375,5.03936767578125,1.0,1.0,1.0,1.0,1.0,92.73,0.0,2023-10-31 20:14:02.447
1.1170464,0.3891993,0.5275909,1.6929096,0.7766926,0.022944417,0.48201528,1.5097057,0.73831505,0.02356218,0.30134338,1.2996393,0.26183787,0.30389857,0.75821185,0.8495334,0.010266455,0.1250259,0.5091604,0.41781312,807.8755,859.0476,862.674,689.41394,822.7839,0.029541015625,0.12030029296875,0.9884033203125,0.590667724609375,2.91595458984375,4.702911376953125,1.0,1.0,1.0,1.0,1.0,92.73,0.0,2023-10-31 20:14:03.447
1.1102191,0.721759,0.6784098,1.4833553,0.7444822,0.38741452,0.30611938,1.5220524,0.69315046,0.37928212,0.43050042,1.0757531,0.23891093,0.2985309,0.68534815,0.4435372,0.019912107,0.08704997,0.38646027,0.1752882,826.0073,861.06226,856.2271,770.40295,851.39197,0.02410888671875,0.1226806640625,0.98773193359375,0.55328369140625,3.431854248046875,4.306640625,1.0,1.0,1.0,1.0,1.0,92.73,0.0,2023-10-31 20:14:04.453
1.2516264,0.7192896,0.723482,0.9324157,0.636419,0.31431296,0.24934842,0.5902968,0.92571753,0.19682412,0.3162801,0.8449023,0.2666086,0.20394349,0.5313631,0.459168,0.0031412258,0.037363064,0.4528638,0.25495967,815.5311,852.1978,861.8681,757.1062,850.989,0.0262451171875,0.12139892578125,0.989990234375,1.128997802734375,1.652374267578125,3.386993408203125,1.0,1.0,1.0,1.0,1.0,92.73,0.0,2023-10-31 20:14:05.455
0.88408,0.32805747,0.23104173,0.8691929,0.6948891,0.4359176,0.14147794,0.54861,0.91133404,0.25345227,0.09457621,0.8944379,0.32869554,0.20065908,0.6311974,0.4334361,0.100382306,0.062703416,0.48882726,0.31656674,789.7436,845.7509,850.18317,722.0513,818.7546,0.0264892578125,0.12353515625,0.98876953125,1.016845703125,2.714080810546875,3.93280029296875,1.0,1.0,1.0,1.0,1.0,92.73,0.0,2023-10-31 20:14:06.455
0.45338863,0.29753935,0.7979584,0.75161755,0.53076166,0.3112559,0.39851382,0.6033553,0.7356846,0.012845722,0.3755143,1.0512326,0.53204525,0.17298412,0.68034506,0.525205,0.00617529,0.030105291,0.59046215,0.25287983,867.9121,858.6447,860.2564,877.98535,864.68866,0.0244140625,0.1229248046875,0.9910888671875,1.054229736328125,3.596343994140625,3.790740966796875,1.0,1.0,1.0,1.0,1.0,92.73,0.0,2023-10-31 20:14:07.461
0.62449163,0.39446166,0.3493187,0.85925853,0.67165375,0.3648268,0.37294734,0.90896255,1.261258,0.039444324,0.36764327,1.2195563,0.2973906,0.29181692,0.68332833,0.6755198,0.16853984,0.108706325,0.68437195,0.17935601,839.304,850.18317,863.47986,845.34796,861.4652,0.02838134765625,0.12506103515625,0.987548828125,2.0635986328125,2.88604736328125,3.147735595703125,1.0,1.0,1.0,1.0,1.0,92.73,0.0,2023-10-31 20:14:08.463
0.8105034,0.43895376,0.2931756,1.2375356,1.0386591,0.45057616,0.37671542,1.1247004,1.3669275,0.13184607,0.21233748,1.2230469,0.1503299,0.21304007,0.6395312,0.66182625,0.17953992,0.061371885,0.6315329,0.2907259,908.60803,859.0476,863.8828,985.9707,903.7729,0.02471923828125,0.11944580078125,0.9881591796875,1.009368896484375,3.058013916015625,4.56085205078125,1.0,1.0,1.0,1.0,1.0,92.73,0.0,2023-10-31 20:14:09.469
1.0095371,0.4091794,0.32116655,1.264576,0.5937014,0.33288056,0.38452026,1.0820668,0.90645623,0.049089286,0.11467598,1.0681069,0.11543367,0.2186414,0.64544874,0.32257313,0.1970977,0.14583755,0.47538233,0.17360094,894.90845,855.42126,848.97437,927.1429,886.8498,0.01983642578125,0.12164306640625,0.9940185546875,0.538330078125,2.76641845703125,4.59075927734375,1.0,1.0,1.0,1.0,1.0,92.73,0.0,2023-10-31 20:14:10.471
0.57787853,0.17357785,0.0044867084,0.75729173,0.5295651,0.42996195,0.07319232,1.0952032,0.93979096,0.14056236,0.092193425,1.2259407,0.14513126,0.18821582,0.6316205,0.3694666,0.063167825,0.10230805,0.5814623,0.041608877,892.0879,856.63007,850.989,901.75824,879.59705,0.0250244140625,0.1226806640625,0.9886474609375,0.55328369140625,3.0804443359375,4.598236083984375,1.0,1.0,1.0,1.0,1.0,92.72,0.0,2023-10-31 20:14:11.477
0.43861568,0.028193675,0.14079008,1.1310529,0.7216227,0.2962051,0.108864196,0.9198777,0.80102044,0.04020239,0.007345772,0.974379,0.083292924,0.17853841,0.75930136,0.47911075,0.12556002,0.18736267,0.5768369,0.28019366,906.1905,866.30035,851.39197,1006.52014,921.9048,0.027099609375,0.12664794921875,0.99224853515625,0.777587890625,2.67669677734375,4.17205810546875,1.0,1.0,1.0,1.0,1.0,92.72,0.0,2023-10-31 20:14:12.485
0.70311904,0.5752395,0.47540656,0.95765805,0.655492,0.25932828,0.3710532,0.9865772,0.91521835,0.07362451,0.017693704,1.2216374,0.23725641,0.09259235,0.7346753,0.48893246,0.04522205,0.19820814,0.5790657,0.22394131,886.04395,860.65936,853.00366,914.65204,885.2381,0.03411865234375,0.12762451171875,0.9881591796875,0.85235595703125,3.013153076171875,3.57391357421875,1.0,1.0,1.0,1.0,1.0,92.72,0.0,2023-10-31 20:14:13.488
0.68629324,0.9296068,0.20435907,1.1304427,0.29510894,0.33871704,0.4526123,0.86958224,0.8199496,0.03126108,0.19538857,1.1667533,0.20620072,0.103598356,0.62095994,0.46470788,0.022613456,0.1829202,0.53113014,0.3265447,902.1612,864.2857,835.6777,972.27106,903.36993,0.037353515625,0.1253662109375,0.9873046875,0.3887939453125,3.1402587890625,4.463653564453125,1.0,1.0,1.0,1.0,1.0,92.72,0.0,2023-10-31 20:14:14.492
0.6588275,0.15615116,0.11055077,1.2105075,0.87101585,0.31238917,0.23244809,1.1519626,1.3037921,0.11803586,0.27220163,1.1257094,0.30820397,0.15248755,0.56841856,0.55502665,0.033739336,0.1636588,0.4533565,0.28041852,895.7143,860.2564,849.7802,964.21246,884.83514,0.0255126953125,0.132080078125,0.9940185546875,0.665435791015625,2.03369140625,4.29168701171875,1.0,1.0,1.0,1.0,1.0,92.72,0.0,2023-10-31 20:14:15.494
1.2076389,0.17219618,0.06496309,1.0022228,1.227775,0.28394488,0.073162615,1.3406686,1.4239883,0.005585514,0.33700505,1.0631336,0.4728051,0.07224062,0.61722654,0.59116286,0.1440531,0.15111685,0.50827974,0.07936847,842.52747,859.0476,844.94507,906.1905,870.7326,0.0247802734375,0.0858154296875,0.99102783203125,2.093505859375,1.158905029296875,0.79254150390625,1.0,1.0,1.0,1.0,1.0,92.72,0.0,2023-10-31 20:14:16.496
1.5196886,0.39513877,0.28358752,1.1058623,1.1811285,0.552789,0.0942217,1.2920778,1.238321,0.023536397,0.3292015,1.059992,0.4809071,0.14623436,0.56852394,0.5936688,0.022798276,0.18398732,0.65203327,0.115818866,868.71796,846.1539,847.3626,910.2198,823.9927,0.00970458984375,0.0845947265625,0.99359130859375,0.2691650390625,1.727142333984375,4.605712890625,1.0,1.0,1.0,1.0,1.0,92.72,0.0,2023-10-31 20:14:17.501
1.0090472,0.2913156,0.09787277,1.4421495,0.5591058,0.28403443,0.033886634,1.1335723,0.79071254,0.14680855,0.25106373,1.2951702,0.32701305,0.1595091,0.7730008,0.6126203,0.06501665,0.045469314,0.62971246,0.47352102,865.09155,859.45056,841.7216,925.9341,855.82416,0.0067138671875,0.09173583984375,0.993408203125,1.27105712890625,3.222503662109375,4.613189697265625,1.0,1.0,1.0,1.0,1.0,92.72,0.0,2023-10-31 20:14:18.501
1.4017261,0.12439579,0.017445417,1.3483615,0.90011215,0.23642953,0.13417603,1.0322695,1.113756,0.18511128,0.2567187,1.3176425,0.4542576,0.3206193,0.5889052,0.88378096,0.0077081146,0.13304046,0.5186431,0.3686302,826.0073,854.61536,857.8388,742.1978,793.7729,0.0234375,0.08782958984375,0.991455078125,0.04486083984375,2.34771728515625,2.833709716796875,1.0,1.0,1.0,1.0,1.0,92.72,0.0,2023-10-31 20:14:19.501
1.3399012,0.20054755,0.41617277,1.2928685,1.3262477,0.1258708,0.15294531,0.9336175,1.3376902,0.4916327,0.28204203,1.4221404,0.3881067,0.33296797,0.77018213,0.77051044,0.0061229463,0.09201371,0.70600164,0.39687783,819.15753,846.9597,840.5128,788.1319,813.5165,0.02520751953125,0.0997314453125,0.99237060546875,1.039276123046875,3.18511962890625,3.00567626953125,1.0,1.0,1.0,1.0,1.0,92.72,0.0,2023-10-31 20:14:20.503
0.62047285,0.52194375,0.08118348,0.98042226,0.32005054,0.15639818,0.00029796947,0.7212277,0.6230749,0.36852193,0.27715537,1.1917281,0.16257064,0.33736616,0.7102417,0.6052175,0.061392672,0.08001295,0.6843656,0.50569,792.5641,850.989,850.18317,701.50183,805.4579,0.020263671875,0.10308837890625,0.9940185546875,0.46356201171875,3.03558349609375,5.151519775390625,1.0,1.0,1.0,1.0,1.0,92.7,0.0,2023-10-31 20:14:21.510
0.44022945,0.12320152,0.32752597,0.79662496,0.2467619,0.15839438,0.13237101,0.72719705,0.102741145,0.14340176,0.28585538,0.8120764,0.23878436,0.32732782,0.6180697,0.51921386,0.022734718,0.021132711,0.5816894,0.39582878,786.1172,852.6007,849.7802,688.20514,801.02563,0.01812744140625,0.10467529296875,0.98797607421875,0.6878662109375,2.16827392578125,3.78326416015625,1.0,1.0,1.0,1.0,1.0,92.7,0.0,2023-10-31 20:14:22.511
0.42259586,0.33375928,0.0897974,0.9707496,0.14281154,0.26941282,0.44279793,0.55764747,0.14712252,0.08045265,0.28768215,0.72653913,0.39875993,0.35554072,0.67992204,0.72668856,0.07239951,0.024903543,0.46037248,0.29473495,790.9524,848.1685,873.5531,715.2015,803.8461,0.0028076171875,0.106689453125,0.99078369140625,0.680389404296875,2.4224853515625,2.953338623046875,1.0,1.0,1.0,1.0,1.0,92.7,0.0,2023-10-31 20:14:23.517
0.58352166,0.5875915,0.2208448,0.789732,0.4952329,0.41872907,0.44098115,0.77295905,0.8038644,0.023267912,0.34039894,1.1018434,0.30977607,0.17286322,0.7306307,0.5806791,0.15706614,0.10599775,0.6364383,0.31857675,787.326,856.63007,843.3333,691.4286,811.0989,0.0074462890625,0.11297607421875,0.9918212890625,1.24114990234375,2.803802490234375,4.299163818359375,1.0,1.0,1.0,1.0,1.0,92.7,0.0,2023-10-31 20:14:24.517
1.0247647,0.58588094,0.3865897,0.7478791,0.77357835,0.23650101,0.42927125,0.9915828,1.057496,0.08899147,0.40258816,1.2559729,0.26809105,0.1092064,0.68261546,0.47427708,0.10931741,0.055912837,0.6128279,0.28407612,788.93774,850.18317,845.7509,687.3993,794.57874,0.00848388671875,0.11639404296875,0.99432373046875,0.25421142578125,3.33465576171875,4.44122314453125,1.0,1.0,1.0,1.0,1.0,92.7,0.0,2023-10-31 20:14:25.529
1.213722,0.49692258,0.10493518,1.056276,0.8929387,0.41337425,0.4349897,0.72326213,1.0304065,0.058805287,0.20748965,1.1316901,0.4223632,0.15594289,0.60541433,0.56220853,0.04200442,0.031989846,0.6422768,0.22224277,811.9048,850.58606,842.1245,761.13556,821.5751,0.01300048828125,0.11181640625,0.991943359375,0.73272705078125,3.27484130859375,3.970184326171875,1.0,1.0,1.0,1.0,1.0,92.7,0.0,2023-10-31 20:14:26.536
0.1284831,0.012908633,0.11886833,0.9335019,0.7378847,0.10675335,0.26226568,0.6074093,0.887441,0.039052144,0.037954807,0.8044269,0.33667114,0.20080277,0.4610787,0.5708341,0.03538419,0.1114899,0.43683177,0.35281175,757.9121,840.9158,861.8681,708.7546,845.34796,0.01397705078125,0.1129150390625,0.99090576171875,0.538330078125,3.33465576171875,4.5758056640625,1.0,1.0,1.0,1.0,1.0,92.7,0.0,2023-10-31 20:14:27.548
0.12040604,0.20994265,0.09308324,0.9880954,0.67770797,0.10554384,0.21697609,0.8466321,0.78055024,0.118788555,0.2813266,0.8596495,0.2640373,0.33532423,0.5462202,0.6355555,0.009669018,0.096176334,0.45858043,0.3093148,864.2857,853.00366,842.9304,889.67035,882.01465,0.0157470703125,0.1131591796875,0.99139404296875,0.814971923828125,3.013153076171875,3.925323486328125,1.0,1.0,1.0,1.0,1.0,92.7,0.0,2023-10-31 20:14:28.562
1.0793955,0.00015728445,0.29351524,0.75295204,0.8444293,0.17797582,0.3284969,0.8103747,0.5810737,0.23003736,0.1870942,0.66544,0.16079873,0.20205493,0.6697829,0.64000785,0.19210649,0.03445384,0.44311637,0.10751937,855.0183,855.82416,852.6007,860.2564,893.69965,0.01556396484375,0.1126708984375,0.989990234375,1.06170654296875,2.27294921875,5.0244140625,1.0,1.0,1.0,1.0,1.0,92.7,0.0,2023-10-31 20:14:29.562
1.1681511,0.050763197,0.044709574,1.0119473,0.8545672,0.34124282,0.08756726,0.65553355,0.5760186,0.104101025,0.11296644,0.5095824,0.26951593,0.14267924,0.7336411,0.5461719,0.15051346,0.0027538748,0.43811938,0.2005134,908.60803,856.2271,840.9158,974.68866,894.5055,0.0125732421875,0.10821533203125,0.9979248046875,0.904693603515625,2.10845947265625,3.955230712890625,1.0,1.0,1.0,1.0,1.0,92.7,0.0,2023-10-31 20:14:30.562
0.6409878,0.5755723,0.0026417896,0.853944,0.4096174,0.6167576,0.22036159,0.6387808,0.5589831,0.1054865,0.123832546,0.9775034,0.19621496,0.12761304,0.5243891,0.596636,0.1603476,0.014248675,0.48944372,0.12650327,900.54944,857.8388,857.03296,968.6447,946.08057,0.01055908203125,0.1134033203125,0.99273681640625,0.785064697265625,2.788848876953125,3.401947021484375,1.0,1.0,1.0,1.0,1.0,92.69,0.0,2023-10-31 20:14:31.562
0.49537948,0.4432817,0.5326354,0.74590933,0.30613396,0.525734,0.25062233,0.8371352,0.5753268,0.12263833,0.24616705,0.99831784,0.4076554,0.2441938,0.4401668,0.597372,0.097983696,0.030879136,0.40953943,0.1382935,828.8278,675.31134,770.0,907.3993,907.8022,0.0242919921875,0.11285400390625,0.9879150390625,0.411224365234375,4.35150146484375,3.60382080078125,1.0,1.0,1.0,1.0,1.0,92.69,0.0,2023-10-31 20:14:32.569
0.69051266,0.32206485,0.6230899,0.7281513,0.36019483,0.551082,0.4332313,0.9837591,0.43888068,0.24785385,0.15946022,0.91104007,0.649496,0.41154218,0.5994937,0.6838681,0.012786797,0.028170858,0.30518323,0.15571082,939.6337,928.7546,1058.0952,1031.5018,930.3663,0.01788330078125,0.11566162109375,0.99346923828125,1.09161376953125,2.13836669921875,3.7384033203125,1.0,1.0,1.0,4.0,1.0,92.69,0.0,2023-10-31 20:14:33.579
0.6984785,0.32206485,0.6230899,0.7281513,0.3325812,0.551082,0.4332313,0.9837591,0.4033552,0.24785385,0.15946022,0.91104007,0.6991407,0.41154218,0.5994937,0.6838681,0.022041159,0.028170858,0.30518323,0.15571082,928.3516,853.00366,830.84247,1009.7436,874.7619,0.02740478515625,0.1129150390625,0.99224853515625,0.904693603515625,2.43743896484375,4.14215087890625,1.0,1.0,1.0,1.0,1.0,92.69,0.0,2023-10-31 20:14:34.585
1.094571,0.32206485,0.6230899,0.7281513,0.88307995,0.551082,0.4332313,0.9837591,1.0297416,0.24785385,0.15946022,0.91104007,0.6070896,0.41154218,0.5994937,0.6838681,0.18433926,0.028170858,0.30518323,0.15571082,888.46155,817.5458,825.6044,965.82416,853.4066,0.02752685546875,0.1136474609375,0.9913330078125,0.605621337890625,2.76641845703125,4.32159423828125,1.0,1.0,1.0,1.0,1.0,92.69,0.0,2023-10-31 20:14:35.595
0.90865034,0.18358113,0.69193316,0.71345514,0.49850982,0.20995174,0.11345868,0.36128658,0.2104935,0.16548337,0.63492256,0.44727543,0.57870156,0.56454575,1.3232324,0.69525594,0.22511931,0.29302493,1.2039092,0.61422193,912.23444,851.39197,826.0073,1016.5934,915.8608,0.02728271484375,0.11566162109375,0.98834228515625,0.478515625,3.39447021484375,4.358978271484375,1.0,1.0,1.0,1.0,1.0,92.69,0.0,2023-10-31 20:14:36.595
0.7149589,0.04621801,0.57036674,0.52606344,0.49288785,0.31402454,0.19510446,0.7127709,0.66396886,0.29399842,0.5794573,0.9754054,0.8740398,0.68508255,1.4121886,1.0142604,0.73436093,0.44638753,1.2932706,0.77447504,878.7912,921.50183,917.8755,911.02563,883.6264,0.0364990234375,0.1156005859375,0.98876953125,0.814971923828125,2.58697509765625,3.745880126953125,1.0,1.0,1.0,1.0,1.0,92.69,0.0,2023-10-31 20:14:37.602
0.35639593,0.2554327,0.48532304,0.29348874,0.48719212,0.33420125,0.13447414,0.9328764,0.66396886,0.08017732,0.56624573,0.9673578,1.0482172,0.7730282,1.4195734,1.2590342,0.9623582,0.55648154,1.3407117,0.9796876,801.02563,871.53845,920.696,696.6667,799.41394,0.02593994140625,0.11944580078125,0.99029541015625,0.07476806640625,0.964508056640625,4.792633056640625,1.0,1.0,1.0,1.0,1.0,92.69,0.0,2023-10-31 20:14:38.612
0.7917431,0.2554327,0.48532304,0.18280911,0.34174892,0.33420125,0.13447414,0.9240178,0.75425214,0.08017732,0.56624573,0.9270649,1.0541377,0.7730282,1.4195734,1.2802511,0.88887954,0.55648154,1.3407117,0.9474045,880.0,866.7033,861.4652,1047.619,869.5238,0.055419921875,0.120361328125,0.98370361328125,0.829925537109375,3.648681640625,3.252410888671875,1.0,1.0,1.0,1.0,1.0,92.69,0.0,2023-10-31 20:14:39.613
0.7606536,0.8040798,0.48532304,0.18280911,0.43148717,0.09423192,0.13447414,0.9240178,0.7164895,0.23835795,0.56624573,0.9270649,0.74788004,0.4419292,1.4195734,1.2802511,0.6171262,0.1953736,1.3407117,0.9474045,844.1392,825.2015,830.84247,810.696,846.9597,0.060791015625,0.12255859375,0.98779296875,0.83740234375,2.190704345703125,4.837493896484375,1.0,1.0,1.0,1.0,1.0,92.69,0.0,2023-10-31 20:14:40.618
0.9191803,0.40473485,0.37462234,0.18280911,0.6650948,0.06186526,0.01771373,0.9240178,0.7521271,0.29703143,0.5560719,0.9270649,0.88941586,0.5307106,1.1442744,1.2802511,0.91253793,0.34602758,1.0406572,0.9474045,786.1172,834.4689,747.4359,703.5165,800.2198,0.05487060546875,0.11492919921875,0.98455810546875,1.2261962890625,2.504730224609375,4.254302978515625,1.0,1.0,1.0,1.0,1.0,92.66,0.0,2023-10-31 20:14:41.629
0.65420234,0.030670514,0.22473973,0.89657116,0.5335218,0.1546942,0.2423285,0.8301738,0.9860531,0.25492132,0.24564503,0.95371485,0.9123453,0.54307956,1.197279,0.8031623,0.7366139,0.49192682,0.94371355,0.513302,790.9524,884.0293,865.09155,714.3956,766.3736,0.05975341796875,0.11865234375,0.9840087890625,0.755157470703125,2.1832275390625,4.418792724609375,1.0,1.0,1.0,1.0,1.0,92.66,0.0,2023-10-31 20:14:42.634
1.1827052,0.20805931,0.10792824,0.74286145,1.0433714,0.11038471,0.31120858,0.9047899,1.2631494,0.22730292,0.17888486,0.93529046,1.2095873,0.6046228,1.2134731,0.86191,0.86477053,0.64152235,1.0098498,0.6194342,766.77655,848.1685,875.9707,693.44324,824.7985,0.05352783203125,0.11981201171875,0.98388671875,0.91217041015625,2.01873779296875,4.239349365234375,1.0,1.0,1.0,1.0,1.0,92.66,0.0,2023-10-31 20:14:43.644
1.2018259,0.12497981,0.691191,0.21868624,1.162811,0.26142973,0.2816654,0.15109278,1.2355957,0.40040717,0.37255937,0.9788291,0.67234504,0.868534,1.1361859,0.5925998,0.46340668,0.4127322,1.1592749,0.35156292,786.52014,844.94507,858.6447,704.7253,781.685,0.05194091796875,0.1212158203125,0.98779296875,0.91217041015625,2.459869384765625,3.461761474609375,1.0,1.0,1.0,1.0,1.0,92.66,0.0,2023-10-31 20:14:44.651
0.5097758,0.0053098956,0.2258289,0.31856912,0.7324637,0.084954835,0.1303219,0.3649222,0.89091516,0.40174973,0.6527353,1.0151759,0.6334907,0.6199681,1.1209271,0.58695024,0.4715445,0.26658317,1.128379,0.40260667,840.9158,845.34796,859.85345,776.4469,830.4396,0.0645751953125,0.1090087890625,0.99188232421875,0.04486083984375,0.40374755859375,4.523468017578125,1.0,1.0,1.0,1.0,1.0,92.66,0.0,2023-10-31 20:14:45.662
0.66606575,0.04038582,0.01622552,0.511178,0.5833732,0.09422206,0.11016867,0.5168824,0.7564051,0.16640446,0.7325226,1.0000488,0.61394835,0.6757071,1.1079993,0.5662522,0.34041265,0.3106969,1.0346403,0.45363396,807.47253,848.1685,872.74725,667.6557,776.04395,0.0618896484375,0.10797119140625,0.99652099609375,1.12152099609375,3.27484130859375,6.452484130859375,1.0,1.0,1.0,1.0,1.0,92.66,0.0,2023-10-31 20:14:46.667
1.0125377,0.38671243,0.16225497,0.511178,0.583386,0.37561926,0.039670777,0.5168824,0.45043698,0.059843544,0.6984447,1.0000488,0.6340183,0.55396944,1.1958606,0.5662522,0.1439434,0.5101045,0.94233984,0.45363396,866.30035,861.8681,853.4066,838.9011,933.5897,0.07696533203125,0.1119384765625,0.9901123046875,0.231781005859375,3.940277099609375,2.130889892578125,1.0,1.0,1.0,1.0,1.0,92.66,0.0,2023-10-31 20:14:47.677
1.0447557,0.09805402,0.19882645,0.511178,0.6481436,0.18908647,0.029327251,0.5168824,0.45043698,0.051088374,0.5599672,1.0000488,0.6695793,0.51349616,1.1195118,0.5662522,0.06604533,0.47035006,0.826535,0.45363396,871.13556,855.0183,866.7033,963.8095,949.304,0.052490234375,0.11871337890625,0.99163818359375,0.635528564453125,2.310333251953125,6.721649169921875,1.0,1.0,1.0,1.0,1.0,92.66,0.0,2023-10-31 20:14:48.677
1.0447557,0.2962478,0.036572713,0.511178,0.6481436,0.28538957,0.08011504,0.5168824,0.45043698,0.22918291,0.60452354,1.0000488,0.6695793,0.42575964,1.0509394,0.5662522,0.06604533,0.22841038,0.8114199,0.45363396,899.34064,867.1062,843.73627,954.5421,931.1722,0.03759765625,0.1016845703125,0.9925537109375,0.127105712890625,1.876678466796875,2.213134765625,1.0,2.0,1.0,1.0,2.0,92.66,0.0,2023-10-31 20:14:49.687
1.3064207,0.07855272,0.023026973,0.511178,1.1865056,0.30824712,0.37303478,0.5168824,1.3530675,0.16659315,0.46194538,1.0000488,0.38216576,0.36227894,1.0075145,0.5662522,0.15221778,0.09394449,0.7617507,0.45363396,882.01465,859.85345,859.0476,903.36993,898.1319,0.022216796875,0.108154296875,0.9915771484375,1.60003662109375,2.52716064453125,2.6019287109375,1.0,1.0,1.0,1.0,1.0,92.66,0.0,2023-10-31 20:14:50.693
1.0282148,0.55467373,0.028673857,1.1627861,0.98120886,0.23472081,0.0016660005,1.1175882,1.1752161,0.13023005,0.5316801,1.1955386,0.4425038,0.3035114,1.0228349,0.68147165,0.1589683,0.20234486,0.8731088,0.2571548,926.337,857.8388,816.337,1014.17584,878.3883,0.0301513671875,0.109130859375,0.995849609375,0.5084228515625,3.177642822265625,4.029998779296875,1.0,1.0,1.0,1.0,1.0,92.64,0.0,2023-10-31 20:14:51.700
0.3646198,0.33008152,0.20106223,1.4191736,0.7093181,0.4283927,0.12041793,1.1387427,0.6060263,0.002895466,0.43819273,1.2243878,0.43857786,0.530524,1.1053298,0.6607307,0.2110598,0.34765792,1.0458527,0.2967173,918.68134,856.2271,828.022,996.04395,907.8022,0.034912109375,0.11358642578125,0.98968505859375,0.485992431640625,3.887939453125,3.745880126953125,1.0,1.0,1.0,1.0,1.0,92.64,0.0,2023-10-31 20:14:52.710
0.02567063,0.23779123,0.15738513,0.4516333,0.44647112,0.33712432,0.1210548,0.6346048,0.87733746,0.2526047,0.48302466,1.1190221,0.546392,0.58280116,1.0988362,0.6755542,0.18863244,0.46174315,1.1719638,0.3171648,928.3516,857.03296,844.94507,1006.1172,855.0183,0.03521728515625,0.1104736328125,0.99029541015625,1.62994384765625,2.1234130859375,4.254302978515625,1.0,1.0,1.0,1.0,1.0,92.64,0.0,2023-10-31 20:14:53.717
0.8527251,0.025702741,0.15330863,0.48909247,0.97813,0.09727561,0.05084818,0.40560827,1.1000867,0.49340254,0.43074396,1.0316147,0.96128935,0.75357664,1.1910545,0.8409977,0.87265325,0.69082314,1.3301518,0.43307877,925.9341,866.7033,844.1392,1024.249,924.7253,0.01385498046875,0.1156005859375,0.99041748046875,1.1962890625,0.605621337890625,5.211334228515625,1.0,1.0,1.0,1.0,1.0,92.64,0.0,2023-10-31 20:14:54.727
1.0418992,0.068549514,0.15742558,0.4885871,0.9940444,0.38069993,0.23298268,0.3230946,1.0632107,0.4667735,0.47978067,1.0190523,0.913634,0.6360891,1.0101719,0.9462174,0.9292097,0.46090764,1.1143911,0.5410621,916.26373,850.18317,855.0183,1008.5348,916.6667,0.03411865234375,0.11566162109375,0.98651123046875,0.515899658203125,3.5589599609375,2.803802490234375,1.0,1.0,1.0,1.0,1.0,92.64,0.0,2023-10-31 20:14:55.738
0.64735836,0.3416876,0.16633818,1.55656,0.42687824,0.33749318,0.21817881,1.082097,1.1485786,0.37156418,0.75562763,1.3196695,0.40023547,0.47382742,1.0308256,0.9144979,0.047379285,0.19314429,1.0533371,0.55664206,892.0879,849.3773,821.1722,981.9414,853.4066,0.03759765625,0.12115478515625,0.98828125,0.052337646484375,3.760833740234375,4.8748779296875,1.0,1.0,1.0,1.0,1.0,92.64,0.0,2023-10-31 20:14:56.748
1.0302422,0.36345348,0.23519146,1.357144,0.5110241,0.30036643,0.015711026,0.8545049,0.7430615,0.10975453,0.6940175,1.27189,0.3744399,0.44163102,1.1011184,0.82564837,0.16700819,0.18601269,0.844278,0.65239537,813.91943,849.3773,857.8388,833.663,824.7985,0.0291748046875,0.11883544921875,0.984619140625,3.18511962890625,1.136474609375,5.046844482421875,1.0,1.0,1.0,1.0,1.0,92.64,0.0,2023-10-31 20:14:57.764
0.9817787,0.25750569,0.15262738,1.2751273,0.82212406,0.32144946,0.07904476,1.0971186,1.09387,0.089770764,0.5229853,1.3529681,0.48348182,0.41490534,1.078836,0.7595783,0.07008643,0.2641588,0.7626825,0.5165045,800.2198,845.34796,865.4945,713.1868,773.6264,0.044677734375,0.12176513671875,0.9896240234375,0.426177978515625,3.058013916015625,7.065582275390625,1.0,1.0,1.0,1.0,1.0,92.64,0.0,2023-10-31 20:14:58.775
0.8163423,0.21426415,0.17615706,1.1813858,0.9966144,0.30573544,0.14341334,1.2930542,1.0543709,0.040117092,0.37088504,1.2046589,0.52852654,0.3818911,1.0449193,0.7800917,0.008138668,0.21633288,0.97678053,0.6114913,793.7729,859.0476,846.1539,727.28937,805.05493,0.04595947265625,0.12176513671875,0.988037109375,1.60003662109375,2.55706787109375,3.45428466796875,1.0,1.0,1.0,1.0,1.0,92.64,0.0,2023-10-31 20:14:59.790
1.0373952,0.13990925,0.113370456,1.3242716,0.8466309,0.39107507,0.120323576,1.4318733,0.67988473,0.07295066,0.36012453,1.1571348,0.29675713,0.49478722,0.9833334,0.9850202,0.05163184,0.15417607,1.0171765,0.87484056,774.43225,842.52747,859.45056,693.0403,790.14655,0.04266357421875,0.12744140625,0.987548828125,0.530853271484375,3.529052734375,4.373931884765625,1.0,1.0,1.0,1.0,1.0,92.64,0.0,2023-10-31 20:15:00.798
0.92911005,0.2273939,0.09990677,1.1430998,0.5344644,0.516929,0.008714437,1.1015512,0.5102255,0.053205583,0.35803586,1.1023868,0.4204094,0.47265664,0.93426424,0.9909944,0.0027792684,0.32697985,0.93486774,0.9229607,828.4249,844.5421,854.21246,786.9231,836.08057,0.05523681640625,0.12677001953125,0.9864501953125,0.8074951171875,4.388885498046875,3.970184326171875,1.0,1.0,1.0,1.0,1.0,92.61,0.0,2023-10-31 20:15:01.801
0.7650155,0.42610207,0.06389222,1.1430998,0.50356954,0.46334743,0.024520742,1.1015512,0.76486886,0.024442703,0.30627668,1.1023868,0.4470356,0.5043924,0.912823,0.9909944,0.09193804,0.28157902,0.97717756,0.9229607,797.8022,853.8095,856.2271,759.92676,853.4066,0.04986572265625,0.14093017578125,0.98651123046875,1.71966552734375,2.474822998046875,3.058013916015625,1.0,1.0,1.0,1.0,1.0,92.61,0.0,2023-10-31 20:15:02.806
0.86284846,0.45228824,0.17107166,0.87765133,0.9232013,0.22372477,0.013741647,1.2183743,0.7785871,0.066520326,0.34090614,1.1021498,0.24884787,0.5612855,1.0977614,0.9875326,0.13410054,0.37119174,1.0772594,0.9322207,807.0696,852.6007,851.39197,711.978,797.8022,0.04046630859375,0.14300537109375,0.9876708984375,1.368255615234375,3.21502685546875,5.443115234375,1.0,1.0,1.0,1.0,1.0,92.61,0.0,2023-10-31 20:15:03.815
1.0219473,0.5120675,0.10360404,1.223423,0.8511837,0.3254761,0.05410037,1.2075628,0.88066715,0.04909792,0.49292824,1.0057491,0.36035052,0.39047572,0.92183083,0.83620894,0.07521931,0.298397,0.97484505,0.7236125,789.34064,855.82416,841.31866,783.69965,857.4359,0.03680419921875,0.14166259765625,0.98944091796875,0.949554443359375,3.6187744140625,2.91595458984375,1.0,1.0,1.0,1.0,1.0,92.61,0.0,2023-10-31 20:15:04.823
1.0159289,0.21104616,0.14220507,1.5410507,0.5962998,0.15583344,0.027939573,1.430065,0.8214041,0.13753086,0.63912493,0.7989704,0.39025766,0.3500266,0.9765735,0.7380883,0.01454057,0.28985298,0.9854526,0.69337124,847.3626,848.97437,873.95605,814.7253,867.1062,0.04302978515625,0.13568115234375,0.986572265625,0.785064697265625,2.833709716796875,3.36456298828125,1.0,1.0,1.0,1.0,1.0,92.61,0.0,2023-10-31 20:15:05.832
0.561567,0.23790868,0.38925532,0.22736496,0.26510698,0.3215089,0.29978365,0.48861137,0.8059897,0.016317137,0.51246744,1.1787326,0.4387398,0.35038188,0.9647868,0.73422694,0.08476231,0.23171988,1.02481,0.75676584,917.0696,852.6007,853.00366,977.9121,900.54944,0.03070068359375,0.14532470703125,0.984619140625,0.95703125,2.452392578125,3.147735595703125,1.0,1.0,1.0,1.0,1.0,92.61,0.0,2023-10-31 20:15:06.839
0.80166984,0.50631815,0.34794715,0.7658428,0.5560935,0.44820595,0.30265403,0.6956539,0.9389728,0.14819504,0.5650374,0.98922396,0.34371862,0.2334313,0.8965311,0.74198145,0.25556636,0.12970674,0.8000183,0.7172741,896.9231,857.4359,853.00366,914.2491,891.28204,0.0269775390625,0.14471435546875,0.989501953125,1.278533935546875,1.667327880859375,3.147735595703125,1.0,1.0,1.0,1.0,1.0,92.61,0.0,2023-10-31 20:15:07.855
1.0027524,0.27865827,0.4097212,1.043349,0.68209356,0.38273382,0.3105181,0.606609,1.0418477,0.09427327,0.4499861,0.7992517,0.49281362,0.3324204,0.8701851,0.7987101,0.42236164,0.104087226,0.7485504,0.7555131,874.35895,862.27106,857.03296,939.6337,891.685,0.02716064453125,0.14599609375,0.98388671875,0.538330078125,1.734619140625,3.5888671875,1.0,1.0,1.0,1.0,1.0,92.61,0.0,2023-10-31 20:15:08.871
1.1747926,0.15682077,0.28046724,1.0734268,0.9687046,0.004561133,0.23635949,0.6044174,1.6014118,0.073879324,0.8341494,0.7646437,1.4679867,0.6119011,1.0213678,0.8162275,1.3802035,0.40040642,1.0826588,0.78090155,875.16486,853.8095,846.9597,896.9231,854.21246,0.02215576171875,0.153564453125,0.9879150390625,0.082244873046875,4.05242919921875,4.882354736328125,1.0,1.0,1.0,1.0,1.0,92.61,0.0,2023-10-31 20:15:09.882
1.2391561,0.09067137,0.17278603,1.0734268,1.2745658,0.0043311445,0.17414834,0.6044174,1.5725529,0.073595546,0.73568314,0.7646437,1.7624743,0.71145284,1.1933488,0.8162275,1.667298,0.39954963,1.1307243,0.78090155,892.0879,847.76556,840.10986,963.8095,863.47986,0.0302734375,0.15167236328125,0.98834228515625,0.859832763671875,2.392578125,4.269256591796875,1.0,1.0,1.0,1.0,1.0,92.61,0.0,2023-10-31 20:15:10.889
0.72772163,0.08526036,0.37551573,0.9462602,0.81412566,0.24313578,0.07675811,1.0473768,0.9213505,0.31674823,0.85262346,0.8225622,0.6982348,0.65903527,1.5034899,1.1225966,0.730972,0.43694818,1.3585845,0.868499,883.22345,867.9121,842.9304,948.0952,884.43225,0.0240478515625,0.1461181640625,0.984619140625,1.502838134765625,3.0206298828125,3.8580322265625,1.0,1.0,1.0,1.0,1.0,92.59,0.0,2023-10-31 20:15:11.890
0.639715,0.19387732,0.22842424,1.2263602,0.6224212,0.10316858,0.15690053,0.9982826,1.0827785,0.4658567,0.7204393,1.1559018,0.53490525,0.60087395,1.3315005,1.0362182,0.53802806,0.37280816,1.2317339,0.9106613,845.34796,859.85345,858.24176,854.21246,849.7802,0.02349853515625,0.1473388671875,0.98284912109375,0.725250244140625,2.743988037109375,4.164581298828125,1.0,1.0,1.0,1.0,1.0,92.59,0.0,2023-10-31 20:15:12.895
1.1651406,0.2268556,0.20585188,1.2877593,0.7994601,0.14694528,0.075687796,1.0684085,0.9004866,0.2558902,0.8910097,1.2737222,0.51580036,0.50567305,1.1586304,0.96477747,0.4427573,0.27900463,0.95877737,0.87168884,861.06226,852.6007,848.1685,883.22345,851.39197,0.02471923828125,0.13580322265625,0.987060546875,1.398162841796875,2.6019287109375,3.050537109375,1.0,1.0,1.0,1.0,1.0,92.59,0.0,2023-10-31 20:15:13.895
1.173453,0.23120275,0.24614587,1.1653033,0.8003509,0.2449581,0.12930427,1.0903472,0.8443486,0.059399005,0.83763427,1.2162149,0.59770054,0.5077982,1.1299543,0.82017165,0.39908683,0.4063975,0.8714448,0.7153388,873.95605,856.2271,851.79486,901.3553,857.03296,0.03240966796875,0.142822265625,0.98480224609375,0.95703125,2.572021484375,4.358978271484375,1.0,1.0,1.0,1.0,1.0,92.59,0.0,2023-10-31 20:15:14.898
0.96025544,0.35448965,0.21446191,0.9291697,0.5650553,0.39828643,0.40631938,0.8659566,0.7512262,0.019739645,0.44478026,1.323292,0.6324654,0.52928966,1.003777,0.8595985,0.34807143,0.2679971,0.6152722,0.63379294,807.0696,860.2564,845.34796,753.47986,838.49817,0.03277587890625,0.13665771484375,0.99224853515625,0.52337646484375,2.564544677734375,3.66363525390625,1.0,1.0,1.0,1.0,1.0,92.59,0.0,2023-10-31 20:15:15.900
0.578842,0.28483415,0.23328435,0.8261126,0.37092242,0.49942428,0.2266666,0.82777464,0.5942452,0.1879138,0.5735837,1.2039777,0.58505756,0.40149593,0.8383601,0.9527375,0.4713461,0.33190832,0.8286353,0.6565803,773.22345,851.39197,877.1795,702.71063,790.9524,0.0303955078125,0.13665771484375,0.98748779296875,1.383209228515625,2.37762451171875,4.104766845703125,1.0,1.0,1.0,1.0,1.0,92.59,0.0,2023-10-31 20:15:16.906
0.46788207,0.40615267,0.17410131,0.8216294,0.49953482,0.26924476,0.3147006,0.73178154,0.7137819,0.23455748,0.5111152,1.1078889,0.58644783,0.41074798,0.84077376,0.8164162,0.4053672,0.06003365,0.9827881,0.54899454,779.67035,854.61536,855.42126,712.7839,830.0366,0.03094482421875,0.13665771484375,0.98748779296875,1.136474609375,3.416900634765625,3.566436767578125,1.0,1.0,1.0,1.0,1.0,92.59,0.0,2023-10-31 20:15:17.909
0.6452463,0.64090055,0.3726279,0.7310167,0.56740767,0.373642,0.5480244,0.91641843,0.8055129,0.023417559,0.49765754,1.2203212,0.6735875,0.56695896,0.76741296,0.8270636,0.3732602,0.24038461,0.7936361,0.66026413,779.67035,855.0183,828.8278,708.7546,812.3077,0.03155517578125,0.13934326171875,0.98773193359375,0.994415283203125,2.459869384765625,4.015045166015625,1.0,1.0,1.0,1.0,1.0,92.59,0.0,2023-10-31 20:15:18.909
0.6817166,0.8946039,0.44264236,0.7734481,0.41927713,0.46650937,0.4739089,0.77720577,0.6077642,0.003801187,0.5153643,1.029133,0.56243354,0.4795712,0.83768296,0.9612169,0.4587513,0.23473445,0.9088099,0.7743476,798.20514,840.5128,857.4359,728.49817,803.8461,0.032958984375,0.1376953125,0.9869384765625,0.85235595703125,2.848663330078125,4.20196533203125,1.0,1.0,1.0,1.0,1.0,92.59,0.0,2023-10-31 20:15:19.909
0.76668155,0.28318483,0.25815892,0.7540309,0.5849408,0.23449579,0.024859253,0.8026367,0.8825212,0.22843823,0.5694303,0.84676534,0.6765475,0.49166742,1.005819,0.96102905,0.58797616,0.2870111,0.85792065,0.7398465,793.36993,852.6007,854.21246,710.7692,823.1868,0.02899169921875,0.13812255859375,0.99078369140625,0.94207763671875,2.953338623046875,4.38140869140625,1.0,1.0,1.0,1.0,1.0,92.59,0.0,2023-10-31 20:15:20.909
0.38939634,0.19406995,0.18135001,0.56674343,0.2809832,0.3075778,0.060592692,0.6277937,0.7474562,0.2998139,0.5609678,0.9712156,0.54142874,0.5296438,1.0992186,1.0075581,0.42426366,0.32572803,0.8817936,0.71402276,778.86444,854.21246,868.71796,676.9231,787.326,0.033935546875,0.14166259765625,0.98553466796875,0.61309814453125,2.788848876953125,3.9776611328125,1.0,1.0,1.0,1.0,1.0,92.56,0.0,2023-10-31 20:15:21.910
0.54061866,0.49571967,0.34144127,0.6175912,0.44756913,0.10848332,0.12059229,0.69308364,1.0789545,0.21361044,0.35643947,1.0573215,0.4953681,0.4668305,0.96736187,0.9367438,0.42191327,0.26239747,0.79416764,0.7428098,809.4872,846.55676,855.0183,763.5531,801.8315,0.0262451171875,0.1385498046875,0.98504638671875,1.07666015625,2.332763671875,3.75335693359375,1.0,1.0,1.0,1.0,1.0,92.56,0.0,2023-10-31 20:15:22.914
0.4167332,0.6465642,0.40255976,0.5903278,0.52354556,0.27953494,0.2198668,0.5659539,0.99572384,0.1594308,0.3149095,0.8312987,0.56781155,0.3957729,0.8222814,0.794424,0.5212596,0.05511349,0.7753868,0.7939116,817.5458,843.73627,842.9304,746.2271,815.9341,0.03515625,0.14453125,0.98931884765625,0.351409912109375,2.893524169921875,5.016937255859375,1.0,1.0,1.0,1.0,1.0,92.56,0.0,2023-10-31 20:15:23.918
1.150646,0.46776494,0.4120074,1.1057526,0.81475335,0.53663695,0.22836143,0.5272462,1.0676048,0.23727612,0.03170407,0.7855448,0.5397027,0.37793118,1.0171244,0.7607594,0.50376374,0.017116794,0.8861457,0.782068,871.9414,854.61536,837.28937,858.6447,880.0,0.0341796875,0.14501953125,0.986083984375,0.605621337890625,2.572021484375,4.568328857421875,1.0,1.0,1.0,1.0,1.0,92.56,0.0,2023-10-31 20:15:24.919
0.37660196,0.35333532,0.29209647,0.6870321,0.6597022,0.24351959,0.15961991,0.6829538,0.9403344,0.08864102,0.3427362,0.8059029,0.5704548,0.42915365,0.926399,0.7863921,0.4253963,0.17335014,0.89632607,0.67272073,822.7839,846.55676,842.52747,809.0842,830.4396,0.03570556640625,0.1424560546875,0.98675537109375,0.575714111328125,3.60382080078125,4.523468017578125,1.0,1.0,1.0,1.0,1.0,92.56,0.0,2023-10-31 20:15:25.921
0.61215043,0.34914368,0.20654747,0.6136675,0.8766738,0.3859086,0.2795763,0.91591173,1.2106177,0.005519735,0.25892937,1.4214432,0.5792345,0.34840402,0.9475188,0.7448547,0.33740968,0.1906345,0.82805544,0.6417337,811.50183,855.82416,858.6447,773.22345,813.91943,0.04620361328125,0.14324951171875,0.987548828125,2.43743896484375,1.614990234375,2.803802490234375,1.0,1.0,1.0,1.0,1.0,92.56,0.0,2023-10-31 20:15:26.926
0.86735153,0.28867972,0.17510457,1.0789183,0.9176458,0.26439518,0.26663172,1.074615,1.1908526,0.25201103,0.3619162,1.4200193,0.36189082,0.32859376,0.8824342,0.7623677,0.07184402,0.09003996,0.80497855,0.43344694,885.64105,845.7509,843.3333,921.50183,876.3736,0.03936767578125,0.142333984375,0.98583984375,0.2691650390625,3.102874755859375,3.45428466796875,1.0,1.0,1.0,1.0,1.0,92.56,0.0,2023-10-31 20:15:27.926
1.0107183,0.37319562,0.16536018,1.313733,0.76347685,0.15619631,0.067629404,0.7985854,1.0120295,0.28074515,0.5036314,0.9035769,0.34540367,0.39270255,0.76310575,0.6771811,0.18715395,0.07820279,0.79718065,0.35776958,870.32965,851.39197,851.39197,896.1172,899.34064,0.0367431640625,0.1368408203125,0.986572265625,0.500946044921875,4.164581298828125,4.5458984375,1.0,1.0,1.0,1.0,1.0,92.56,0.0,2023-10-31 20:15:28.926
0.7392283,0.6781846,0.39672565,0.9962999,0.42994267,0.54076046,0.25937927,0.7872731,0.9481466,0.03273319,0.52977926,0.98951066,0.28658074,0.42580965,0.89171124,0.5303497,0.13309537,0.22464238,0.89341563,0.25865808,855.42126,850.989,863.0769,831.2454,866.30035,0.05419921875,0.141845703125,0.9820556640625,1.428070068359375,1.547698974609375,3.401947021484375,1.0,1.0,1.0,1.0,1.0,92.56,0.0,2023-10-31 20:15:29.926
0.76661277,0.04028652,0.42537263,1.1031954,0.61413443,0.42761105,0.21654803,1.0863358,0.93563247,0.22273567,0.49440598,1.08401,0.22471991,0.39358628,0.8421084,0.61206406,0.14871322,0.124346696,1.0102503,0.27564582,831.6484,855.42126,869.12085,806.26373,858.6447,0.04571533203125,0.14178466796875,0.9837646484375,1.084136962890625,1.9140625,3.45428466796875,1.0,1.0,1.0,1.0,1.0,92.56,0.0,2023-10-31 20:15:30.929
0.1607278,0.2855856,0.27832717,0.79340357,0.65820765,0.3798978,0.27894628,0.95514846,0.9310602,0.13915479,0.082710765,1.1037027,0.31557882,0.441553,0.71529436,0.65724546,0.21607414,0.14899741,0.9362727,0.40290114,890.87915,864.68866,848.5714,932.7839,890.07324,0.05157470703125,0.141845703125,0.9879150390625,0.725250244140625,3.162689208984375,4.358978271484375,1.0,1.0,1.0,1.0,1.0,92.55,0.0,2023-10-31 20:15:31.934
0.67899257,0.42394978,0.11703659,0.60529935,0.7319517,0.3324197,0.124156095,0.83154666,0.9574992,0.060037483,0.21428283,1.1076486,0.333417,0.4592908,0.7590258,0.44463447,0.036310174,0.09121536,0.6735798,0.34010482,917.0696,862.27106,837.28937,987.1795,907.3993,0.0513916015625,0.141845703125,0.9857177734375,0.650482177734375,2.82623291015625,3.626251220703125,1.0,1.0,1.0,1.0,1.0,92.55,0.0,2023-10-31 20:15:32.934
0.7242872,0.38917232,0.037452422,0.8687539,0.72382736,0.28676572,0.063725494,1.0439548,1.0178157,0.18999907,0.45306447,1.0864476,0.33184665,0.4664039,0.8743292,0.47249043,0.04302675,0.06778944,0.75529456,0.26338956,907.8022,852.6007,846.1539,986.77655,897.326,0.05615234375,0.1341552734375,0.98199462890625,1.31591796875,3.252410888671875,4.044952392578125,1.0,1.0,1.0,1.0,1.0,92.55,0.0,2023-10-31 20:15:33.937
0.77649164,0.37193272,0.009072301,1.031653,0.63484204,0.4582952,0.007001067,0.9340004,0.8841086,0.09619322,0.45533338,0.7757363,0.3675252,0.45216617,1.0023408,0.4553557,0.09067997,0.090322785,0.77989316,0.30523202,928.7546,838.0952,859.85345,1035.1282,904.57874,0.072509765625,0.12872314453125,0.99847412109375,3.409423828125,6.377716064453125,1.846771240234375,1.0,1.0,1.0,1.0,1.0,92.55,0.0,2023-10-31 20:15:34.942
1.2203875,0.5904411,0.17378144,1.1198297,0.37330693,0.70253086,0.3123523,0.6464243,0.86155605,0.042533662,0.28056234,0.65011686,0.13361031,0.26470363,0.7243325,0.2394698,0.16800083,0.031100689,0.6814194,0.20211187,943.2601,850.989,852.1978,1037.5458,924.3223,0.10205078125,0.02081298828125,0.9832763671875,1.06170654296875,5.988922119140625,6.041259765625,1.0,1.0,1.0,1.0,1.0,92.55,0.0,2023-10-31 20:15:35.942
1.477129,0.14205776,0.042612303,1.1198297,0.91873056,0.16245912,0.21787071,0.6464243,0.93829805,0.1864344,0.5921338,0.65011686,0.29461372,0.45008358,0.70478565,0.2394698,0.22577973,0.1468966,0.77228636,0.20211187,930.3663,860.2564,837.6923,1022.6374,888.86444,0.10772705078125,0.04290771484375,0.9820556640625,0.874786376953125,5.166473388671875,8.321685791015625,1.0,1.0,1.0,1.0,1.0,92.55,0.0,2023-10-31 20:15:36.945
1.5769411,0.011741059,0.20528659,1.1198297,1.2155813,0.09677747,0.067661405,0.6464243,0.86776656,0.0010077106,0.60348165,0.65011686,0.39687413,0.35557318,0.8900685,0.2394698,0.26693818,0.22139667,0.8716754,0.20211187,887.6557,861.4652,842.1245,956.9597,857.4359,0.09283447265625,0.10772705078125,0.9876708984375,0.665435791015625,3.27484130859375,1.1962890625,1.0,1.0,1.0,1.0,1.0,92.55,0.0,2023-10-31 20:15:37.951
1.3566668,0.029810376,0.049151722,1.1198297,1.2675498,0.13589206,0.06379148,0.6464243,0.8672721,0.09661725,0.48231724,0.65011686,0.32822555,0.4321563,1.0182846,0.2394698,0.23404123,0.19036943,1.0428866,0.20211187,982.3443,853.8095,849.3773,1087.1062,1085.8975,0.08428955078125,0.10113525390625,0.998046875,1.39068603515625,2.041168212890625,3.970184326171875,1.0,1.0,1.0,1.0,1.0,92.55,0.0,2023-10-31 20:15:38.953
0.95751506,0.18052836,0.23977956,1.1198297,0.7177653,0.13213141,0.057296485,0.6464243,0.8166148,0.19251762,0.6857148,0.65011686,0.13681091,0.45546395,0.93092835,0.2394698,0.23745118,0.14931205,0.92255527,0.20211187,874.7619,857.8388,840.10986,992.01465,884.0293,0.072509765625,0.08978271484375,0.99530029296875,4.38140869140625,4.329071044921875,6.871185302734375,1.0,1.0,1.0,1.0,1.0,92.55,0.0,2023-10-31 20:15:39.958
0.95751506,0.0061342283,0.045999136,1.1198297,0.7177653,0.19932935,0.16990745,0.6464243,0.8166148,0.022057714,0.5563543,0.65011686,0.13681091,0.37125316,0.95393896,0.2394698,0.23745118,0.015091737,0.74337786,0.20211187,772.8205,853.4066,863.47986,848.5714,818.3516,0.08453369140625,0.0362548828125,0.98114013671875,8.456268310546875,2.91595458984375,3.058013916015625,1.0,1.0,1.0,1.0,1.0,92.52,0.0,2023-10-31 20:15:40.961
0.95751506,0.3454903,0.31393662,1.1198297,0.7177653,0.16368887,0.09440602,0.6464243,0.8166148,0.17592959,0.4402997,0.65011686,0.13681091,0.34297118,1.0534735,0.2394698,0.23745118,0.1348011,0.83014554,0.20211187,877.1795,860.65936,840.10986,875.56775,839.707,0.05633544921875,0.04400634765625,0.9981689453125,0.538330078125,0.11962890625,6.422576904296875,1.0,2.0,1.0,1.0,2.0,92.52,0.0,2023-10-31 20:15:41.967
1.6800175,0.16673927,0.15962107,1.1198297,1.1267353,0.05491446,0.21846034,0.6464243,1.0547003,0.36955562,0.44461754,0.65011686,0.45581388,0.33395922,1.0261216,0.2394698,0.027492438,0.011815912,0.78167814,0.20211187,802.23444,849.3773,853.4066,691.8315,796.99634,0.04669189453125,0.082763671875,0.994140625,1.57012939453125,2.75146484375,3.641204833984375,1.0,1.0,1.0,1.0,1.0,92.52,0.0,2023-10-31 20:15:42.970
1.6435834,0.14747961,0.08663027,1.1198297,1.0113358,0.18672682,0.18839556,0.6464243,1.1281263,0.46607167,0.43376404,0.65011686,0.49544302,0.30537185,0.95300704,0.2394698,0.120181486,0.032564733,0.8546578,0.20211187,800.2198,854.21246,845.7509,745.82416,773.6264,0.04034423828125,0.08642578125,0.9912109375,1.45050048828125,1.921539306640625,4.47113037109375,1.0,1.0,1.0,1.0,1.0,92.52,0.0,2023-10-31 20:15:43.974
1.3629259,0.02606175,0.115232706,1.1198297,1.2224085,0.048785213,0.09447179,0.6464243,1.4558306,0.5394305,0.5119805,0.65011686,0.32093558,0.2902324,0.89792633,0.2394698,0.118244365,0.002477492,0.77342415,0.20211187,813.5165,856.2271,849.3773,703.1135,792.1612,0.040283203125,0.0836181640625,0.9918212890625,0.067291259765625,2.699127197265625,4.673004150390625,1.0,1.0,1.0,1.0,1.0,92.52,0.0,2023-10-31 20:15:44.978
0.8549412,0.060773697,0.43180624,1.1198297,0.40347922,0.20566112,0.153116,0.6464243,0.48356086,0.019003784,0.27170712,0.65011686,0.29577896,0.46288288,0.93138576,0.2394698,0.05030157,0.13967802,0.71950036,0.20211187,801.4286,848.1685,860.2564,687.8022,775.64105,0.03887939453125,0.094970703125,0.99237060546875,0.37384033203125,3.386993408203125,0.9271240234375,1.0,1.0,1.0,1.0,1.0,92.52,0.0,2023-10-31 20:15:45.983
0.62542695,0.87588716,0.3628492,1.1198297,0.30293366,0.26773265,0.1964408,0.6464243,0.4568736,0.20180672,0.17906374,0.65011686,0.17295514,0.57208514,0.869236,0.2394698,0.002220065,0.25206208,0.9046601,0.20211187,845.34796,855.42126,881.6117,754.68866,776.8498,0.0528564453125,0.08770751953125,0.988037109375,0.3887939453125,0.8673095703125,0.16448974609375,1.0,1.0,1.0,1.0,1.0,92.52,0.0,2023-10-31 20:15:46.986
0.62542695,0.6454721,0.62096447,1.1198297,0.30293366,0.07527614,0.35308498,0.6464243,0.4568736,0.21977055,0.19565998,0.65011686,0.17295514,0.62971395,0.77047276,0.2394698,0.002220065,0.18362705,0.6780998,0.20211187,824.3956,850.58606,837.6923,750.2564,845.34796,0.0093994140625,0.113037109375,0.9854736328125,1.15142822265625,0.73272705078125,2.071075439453125,1.0,1.0,1.0,1.0,1.0,92.52,0.0,2023-10-31 20:15:47.991
0.82198316,0.063654356,0.21620688,1.1877394,0.60953593,0.39682686,0.006208708,1.1358273,0.9292909,0.0031286138,0.3026913,1.2272577,0.15943184,0.41368896,0.7357653,0.3406942,0.018553618,0.015799096,0.726122,0.12383396,798.20514,853.8095,852.1978,726.4835,815.12823,0.0068359375,0.09869384765625,0.99029541015625,0.321502685546875,3.06549072265625,4.553375244140625,1.0,1.0,1.0,1.0,1.0,92.52,0.0,2023-10-31 20:15:48.994
0.6509893,0.6356524,0.30588675,0.9097832,0.4611385,0.43506032,0.51843125,1.0727433,0.992744,0.006110689,0.19230759,1.298437,0.19293703,0.2954355,0.621147,0.39080936,0.01890648,0.09184549,0.898388,0.032998953,792.1612,853.8095,855.42126,716.4103,836.08057,0.01507568359375,0.091552734375,0.991943359375,0.934600830078125,2.235565185546875,4.38140869140625,1.0,1.0,1.0,1.0,1.0,92.52,0.0,2023-10-31 20:15:49.999
0.8344961,0.5820364,0.3016824,0.8718544,0.49166888,0.83654827,0.46794876,0.9371285,0.56478643,0.05160394,0.39509234,1.0838573,0.18129013,0.35889763,0.91468877,0.45895582,0.10395432,0.024591707,0.8057709,0.06614768,841.31866,855.82416,858.6447,819.5604,865.4945,0.00439453125,0.10101318359375,0.992431640625,0.95703125,2.43743896484375,4.0374755859375,1.0,1.0,1.0,1.0,1.0,92.5,0.0,2023-10-31 20:15:51.002
0.7862555,0.51229227,0.29049614,1.1189684,0.6415972,0.30871838,0.46142316,1.0903556,0.77812743,0.28327847,0.25889575,1.1016961,0.23058482,0.32088172,0.86407334,0.4634023,0.13408278,0.020602163,0.64552474,0.07423446,817.5458,859.0476,853.8095,776.04395,836.4835,0.01214599609375,0.1015625,0.991943359375,1.2261962890625,3.491668701171875,3.566436767578125,1.0,1.0,1.0,1.0,1.0,92.5,0.0,2023-10-31 20:15:52.007
1.2383629,0.38325304,0.2985825,1.3634624,0.97470397,0.079849,0.00037308797,1.2218375,0.6672228,0.25487986,0.098283105,1.084889,0.2710025,0.2591733,0.8860313,0.40515018,0.008150317,0.060084708,0.9428885,0.110035904,873.5531,847.76556,852.1978,936.0073,858.24176,0.0283203125,0.09881591796875,0.9866943359375,1.697235107421875,2.52716064453125,0.1495361328125,1.0,1.0,1.0,1.0,1.0,92.5,0.0,2023-10-31 20:15:53.007
1.4534202,0.46364525,0.9227827,1.3634624,1.1560911,0.14369403,0.5868424,1.2218375,1.0164912,0.32352483,0.65607285,1.084889,0.38288465,0.1780202,0.76034915,0.40515018,0.100601755,0.005154709,0.7738546,0.110035904,883.6264,854.61536,864.68866,830.84247,937.2161,0.00799560546875,0.05230712890625,0.99578857421875,0.112152099609375,0.575714111328125,10.60211181640625,1.0,1.0,1.0,1.0,1.0,92.5,0.0,2023-10-31 20:15:54.007
1.4534202,0.91957307,1.0650598,1.3634624,1.1560911,0.5615499,0.72567374,1.2218375,1.0164912,0.52223563,0.66509634,1.084889,0.38288465,0.24630965,0.6790843,0.40515018,0.100601755,0.13424656,0.6686412,0.110035904,855.0183,844.1392,864.68866,819.15753,879.59705,0.04229736328125,0.0623779296875,0.9930419921875,1.33087158203125,0.441131591796875,4.18701171875,1.0,1.0,1.0,1.0,1.0,92.5,0.0,2023-10-31 20:15:55.010
1.4534202,0.7343554,0.5923713,1.3634624,1.1560911,0.20970172,0.28994843,1.2218375,1.0164912,0.11317504,0.42251062,1.084889,0.38288465,0.20775077,0.86030936,0.40515018,0.100601755,0.17631261,0.7991431,0.110035904,888.86444,848.97437,839.707,987.98535,875.16486,0.08929443359375,0.048095703125,0.995361328125,0.575714111328125,2.392578125,6.243133544921875,1.0,2.0,1.0,1.0,2.0,92.5,0.0,2023-10-31 20:15:56.015
